Type: Dye
Name: Quasar-570.csv
Extinction coefficient: 115000
Quantum Yield: 0.04
wavelength,excitation,emission
300.000000,0.000000,0.000000
301.000000,0.000000,0.000000
302.000000,0.000000,0.000000
303.000000,0.000000,0.000000
304.000000,0.000000,0.000000
305.000000,0.000000,0.000000
306.000000,0.000000,0.000000
307.000000,0.000000,0.000000
308.000000,0.000000,0.000000
309.000000,0.000000,0.000000
310.000000,0.000000,0.000000
311.000000,0.000000,0.000000
312.000000,0.000000,0.000000
313.000000,0.000000,0.000000
314.000000,0.000000,0.000000
315.000000,0.000000,0.000000
316.000000,0.000000,0.000000
317.000000,0.000000,0.000000
318.000000,0.000000,0.000000
319.000000,0.000000,0.000000
320.000000,0.000000,0.000000
321.000000,0.000000,0.000000
322.000000,0.000000,0.000000
323.000000,0.000000,0.000000
324.000000,0.000000,0.000000
325.000000,0.000000,0.000000
326.000000,0.000000,0.000000
327.000000,0.000000,0.000000
328.000000,0.000000,0.000000
329.000000,0.000000,0.000000
330.000000,0.000000,0.000000
331.000000,0.000000,0.000000
332.000000,0.000000,0.000000
333.000000,0.000000,0.000000
334.000000,0.000000,0.000000
335.000000,0.000000,0.000000
336.000000,0.000000,0.000000
337.000000,0.000000,0.000000
338.000000,0.000000,0.000000
339.000000,0.000000,0.000000
340.000000,0.000000,0.000000
341.000000,0.000000,0.000000
342.000000,0.000000,0.000000
343.000000,0.000000,0.000000
344.000000,0.000000,0.000000
345.000000,0.000000,0.000000
346.000000,0.000000,0.000000
347.000000,0.000000,0.000000
348.000000,0.000000,0.000000
349.000000,0.000000,0.000000
350.000000,0.000000,0.000000
351.000000,0.000000,0.000000
352.000000,0.027110,0.000000
353.000000,0.026653,0.000000
354.000000,0.026387,0.000000
355.000000,0.025876,0.000000
356.000000,0.025408,0.000000
357.000000,0.024945,0.000000
358.000000,0.024383,0.000000
359.000000,0.023886,0.000000
360.000000,0.023386,0.000000
361.000000,0.023067,0.000000
362.000000,0.022708,0.000000
363.000000,0.022240,0.000000
364.000000,0.021997,0.000000
365.000000,0.021864,0.000000
366.000000,0.021803,0.000000
367.000000,0.021859,0.000000
368.000000,0.021854,0.000000
369.000000,0.021858,0.000000
370.000000,0.021782,0.000000
371.000000,0.021681,0.000000
372.000000,0.021555,0.000000
373.000000,0.021534,0.000000
374.000000,0.021504,0.000000
375.000000,0.021393,0.000000
376.000000,0.021198,0.000000
377.000000,0.020957,0.000000
378.000000,0.020896,0.000000
379.000000,0.020580,0.000000
380.000000,0.020356,0.000000
381.000000,0.020212,0.000000
382.000000,0.019960,0.000000
383.000000,0.019761,0.000000
384.000000,0.019734,0.000000
385.000000,0.019447,0.000000
386.000000,0.019358,0.000000
387.000000,0.019193,0.000000
388.000000,0.019325,0.000000
389.000000,0.019317,0.000000
390.000000,0.018971,0.000000
391.000000,0.018877,0.000000
392.000000,0.018607,0.000000
393.000000,0.018434,0.000000
394.000000,0.018640,0.000000
395.000000,0.018468,0.000000
396.000000,0.018133,0.000000
397.000000,0.017808,0.000000
398.000000,0.017578,0.000000
399.000000,0.017715,0.000000
400.000000,0.017662,0.000000
401.000000,0.017868,0.000000
402.000000,0.017563,0.000000
403.000000,0.017158,0.000000
404.000000,0.017324,0.000000
405.000000,0.017505,0.000000
406.000000,0.017519,0.000000
407.000000,0.017534,0.000000
408.000000,0.017710,0.000000
409.000000,0.017767,0.000000
410.000000,0.017447,0.000000
411.000000,0.017643,0.000000
412.000000,0.017896,0.000000
413.000000,0.017848,0.000000
414.000000,0.017893,0.000000
415.000000,0.018071,0.000000
416.000000,0.018381,0.000000
417.000000,0.018639,0.000000
418.000000,0.018701,0.000000
419.000000,0.019040,0.000000
420.000000,0.018986,0.000000
421.000000,0.019245,0.000000
422.000000,0.019340,0.000000
423.000000,0.020037,0.000000
424.000000,0.020189,0.000000
425.000000,0.020616,0.000000
426.000000,0.020977,0.000000
427.000000,0.021197,0.000000
428.000000,0.021290,0.000000
429.000000,0.022306,0.000000
430.000000,0.022798,0.000000
431.000000,0.023120,0.000000
432.000000,0.023446,0.000000
433.000000,0.023989,0.000000
434.000000,0.024355,0.000000
435.000000,0.024713,0.000000
436.000000,0.025468,0.000000
437.000000,0.027075,0.000000
438.000000,0.027357,0.000000
439.000000,0.028336,0.000000
440.000000,0.029657,0.000000
441.000000,0.030555,0.000000
442.000000,0.031859,0.000000
443.000000,0.032980,0.000000
444.000000,0.034275,0.000000
445.000000,0.035778,0.000000
446.000000,0.036674,0.000000
447.000000,0.038533,0.000000
448.000000,0.040045,0.000000
449.000000,0.041730,0.000000
450.000000,0.043559,0.000000
451.000000,0.045494,0.000000
452.000000,0.047373,0.000000
453.000000,0.049544,0.000000
454.000000,0.051818,0.000000
455.000000,0.054190,0.000000
456.000000,0.056469,0.000000
457.000000,0.059060,0.000000
458.000000,0.061627,0.000000
459.000000,0.064791,0.000000
460.000000,0.068044,0.000000
461.000000,0.071674,0.000000
462.000000,0.075030,0.000000
463.000000,0.078519,0.000000
464.000000,0.082594,0.000000
465.000000,0.086770,0.000000
466.000000,0.091161,0.000000
467.000000,0.096132,0.000000
468.000000,0.100948,0.000000
469.000000,0.106262,0.000000
470.000000,0.111516,0.000000
471.000000,0.117648,0.000000
472.000000,0.123867,0.000000
473.000000,0.130067,0.000000
474.000000,0.136894,0.000000
475.000000,0.143546,0.000000
476.000000,0.150534,0.000000
477.000000,0.157455,0.000000
478.000000,0.164319,0.000000
479.000000,0.171503,0.000000
480.000000,0.178831,0.000000
481.000000,0.187311,0.000000
482.000000,0.194627,0.000000
483.000000,0.200754,0.000000
484.000000,0.207423,0.000000
485.000000,0.214130,0.000000
486.000000,0.221000,0.000000
487.000000,0.227919,0.000000
488.000000,0.235200,0.000000
489.000000,0.242311,0.000000
490.000000,0.248844,0.000000
491.000000,0.257106,0.000000
492.000000,0.267258,0.000000
493.000000,0.277445,0.000000
494.000000,0.288424,0.000000
495.000000,0.300352,0.000000
496.000000,0.312896,0.000000
497.000000,0.326969,0.000000
498.000000,0.341638,0.000000
499.000000,0.357425,0.000000
500.000000,0.373762,0.000000
501.000000,0.390954,0.002250
502.000000,0.409055,0.002900
503.000000,0.427387,0.003807
504.000000,0.446106,0.004872
505.000000,0.465214,0.005970
506.000000,0.483906,0.006497
507.000000,0.502468,0.006602
508.000000,0.520176,0.006780
509.000000,0.537164,0.006181
510.000000,0.552739,0.005391
511.000000,0.566738,0.004245
512.000000,0.579360,0.003554
513.000000,0.589889,0.003907
514.000000,0.598690,0.004876
515.000000,0.605247,0.005670
516.000000,0.609868,0.006077
517.000000,0.613012,0.006142
518.000000,0.614572,0.005759
519.000000,0.614781,0.005650
520.000000,0.614412,0.005480
521.000000,0.613372,0.006476
522.000000,0.612447,0.008534
523.000000,0.611774,0.010675
524.000000,0.611666,0.012586
525.000000,0.612950,0.014256
526.000000,0.615260,0.016648
527.000000,0.619369,0.018586
528.000000,0.625502,0.019765
529.000000,0.633823,0.019395
530.000000,0.644147,0.019609
531.000000,0.656610,0.020795
532.000000,0.671123,0.023588
533.000000,0.688096,0.027079
534.000000,0.707101,0.030779
535.000000,0.728220,0.034966
536.000000,0.750985,0.040440
537.000000,0.775513,0.046941
538.000000,0.801121,0.055507
539.000000,0.827401,0.064827
540.000000,0.854574,0.077327
541.000000,0.881581,0.090674
542.000000,0.907565,0.107947
543.000000,0.932288,0.127403
544.000000,0.954469,0.149854
545.000000,0.973159,0.176742
546.000000,0.987396,0.205065
547.000000,0.996319,0.239834
548.000000,1.000000,0.275371
549.000000,0.996411,0.316592
550.000000,0.986245,0.360408
551.000000,0.969036,0.408024
552.000000,0.944294,0.459831
553.000000,0.912979,0.510683
554.000000,0.875784,0.567077
555.000000,0.832999,0.618625
556.000000,0.786197,0.673662
557.000000,0.735522,0.725623
558.000000,0.682927,0.774699
559.000000,0.628998,0.821061
560.000000,0.574794,0.860222
561.000000,0.521433,0.898616
562.000000,0.469721,0.930173
563.000000,0.420402,0.957965
564.000000,0.373906,0.978496
565.000000,0.330617,0.991906
566.000000,0.290893,0.998772
567.000000,0.254815,0.999620
568.000000,0.222055,0.994351
569.000000,0.193212,0.983733
570.000000,0.167537,0.967750
571.000000,0.144812,0.948842
572.000000,0.125059,0.927245
573.000000,0.108036,0.902709
574.000000,0.093148,0.877394
575.000000,0.080009,0.847940
576.000000,0.069026,0.819246
577.000000,0.059926,0.787480
578.000000,0.051572,0.755038
579.000000,0.044151,0.723094
580.000000,0.038833,0.691705
581.000000,0.033989,0.663692
582.000000,0.029267,0.634831
583.000000,0.025867,0.608990
584.000000,0.023021,0.583394
585.000000,0.020036,0.561016
586.000000,0.017502,0.540850
587.000000,0.015493,0.520872
588.000000,0.014674,0.503324
589.000000,0.013089,0.485065
590.000000,0.011528,0.470569
591.000000,0.011039,0.457111
592.000000,0.009722,0.445322
593.000000,0.009183,0.433980
594.000000,0.008784,0.422932
595.000000,0.008620,0.413198
596.000000,0.008341,0.404206
597.000000,0.007784,0.397317
598.000000,0.007255,0.390939
599.000000,0.007253,0.385796
600.000000,0.006621,0.382221
601.000000,0.000000,0.379238
602.000000,0.000000,0.377179
603.000000,0.000000,0.374412
604.000000,0.000000,0.371151
605.000000,0.000000,0.367473
606.000000,0.000000,0.363603
607.000000,0.000000,0.358852
608.000000,0.000000,0.353484
609.000000,0.000000,0.348053
610.000000,0.000000,0.341777
611.000000,0.000000,0.336498
612.000000,0.000000,0.330249
613.000000,0.000000,0.323726
614.000000,0.000000,0.316432
615.000000,0.000000,0.308614
616.000000,0.000000,0.301354
617.000000,0.000000,0.294193
618.000000,0.000000,0.287159
619.000000,0.000000,0.279547
620.000000,0.000000,0.272570
621.000000,0.000000,0.266280
622.000000,0.000000,0.259630
623.000000,0.000000,0.252986
624.000000,0.000000,0.245075
625.000000,0.000000,0.238807
626.000000,0.000000,0.232281
627.000000,0.000000,0.225453
628.000000,0.000000,0.217152
629.000000,0.000000,0.208871
630.000000,0.000000,0.200867
631.000000,0.000000,0.193158
632.000000,0.000000,0.185095
633.000000,0.000000,0.176677
634.000000,0.000000,0.169350
635.000000,0.000000,0.162982
636.000000,0.000000,0.156832
637.000000,0.000000,0.150835
638.000000,0.000000,0.144593
639.000000,0.000000,0.139272
640.000000,0.000000,0.133914
641.000000,0.000000,0.128395
642.000000,0.000000,0.122884
643.000000,0.000000,0.117688
644.000000,0.000000,0.113110
645.000000,0.000000,0.108974
646.000000,0.000000,0.105817
647.000000,0.000000,0.102866
648.000000,0.000000,0.100093
649.000000,0.000000,0.097002
650.000000,0.000000,0.094490
651.000000,0.000000,0.092440
652.000000,0.000000,0.090738
653.000000,0.000000,0.087807
654.000000,0.000000,0.084687
655.000000,0.000000,0.081149
656.000000,0.000000,0.078596
657.000000,0.000000,0.076184
658.000000,0.000000,0.073784
659.000000,0.000000,0.070821
660.000000,0.000000,0.068225
661.000000,0.000000,0.065979
662.000000,0.000000,0.064428
663.000000,0.000000,0.063035
664.000000,0.000000,0.060985
665.000000,0.000000,0.058724
666.000000,0.000000,0.056383
667.000000,0.000000,0.054687
668.000000,0.000000,0.053259
669.000000,0.000000,0.051630
670.000000,0.000000,0.049738
671.000000,0.000000,0.048536
672.000000,0.000000,0.047736
673.000000,0.000000,0.047310
674.000000,0.000000,0.047102
675.000000,0.000000,0.046344
676.000000,0.000000,0.045953
677.000000,0.000000,0.045090
678.000000,0.000000,0.044188
679.000000,0.000000,0.043788
680.000000,0.000000,0.043178
681.000000,0.000000,0.042126
682.000000,0.000000,0.040749
683.000000,0.000000,0.039758
684.000000,0.000000,0.039270
685.000000,0.000000,0.038985
686.000000,0.000000,0.037471
687.000000,0.000000,0.035615
688.000000,0.000000,0.033295
689.000000,0.000000,0.031571
690.000000,0.000000,0.029709
691.000000,0.000000,0.027908
692.000000,0.000000,0.026116
693.000000,0.000000,0.025122
694.000000,0.000000,0.025122
695.000000,0.000000,0.025068
696.000000,0.000000,0.024442
697.000000,0.000000,0.023122
698.000000,0.000000,0.022073
699.000000,0.000000,0.021060
700.000000,0.000000,0.020353
701.000000,0.000000,0.018920
702.000000,0.000000,0.017678
703.000000,0.000000,0.016745
704.000000,0.000000,0.016671
705.000000,0.000000,0.016779
706.000000,0.000000,0.016757
707.000000,0.000000,0.016170
708.000000,0.000000,0.015922
709.000000,0.000000,0.000000
710.000000,0.000000,0.000000
711.000000,0.000000,0.000000
712.000000,0.000000,0.000000
713.000000,0.000000,0.000000
714.000000,0.000000,0.000000
715.000000,0.000000,0.000000
716.000000,0.000000,0.000000
717.000000,0.000000,0.000000
718.000000,0.000000,0.000000
719.000000,0.000000,0.000000
720.000000,0.000000,0.000000
721.000000,0.000000,0.000000
722.000000,0.000000,0.000000
723.000000,0.000000,0.000000
724.000000,0.000000,0.000000
725.000000,0.000000,0.000000
726.000000,0.000000,0.000000
727.000000,0.000000,0.000000
728.000000,0.000000,0.000000
729.000000,0.000000,0.000000
730.000000,0.000000,0.000000
731.000000,0.000000,0.000000
732.000000,0.000000,0.000000
733.000000,0.000000,0.000000
734.000000,0.000000,0.000000
735.000000,0.000000,0.000000
736.000000,0.000000,0.000000
737.000000,0.000000,0.000000
738.000000,0.000000,0.000000
739.000000,0.000000,0.000000
740.000000,0.000000,0.000000
741.000000,0.000000,0.000000
742.000000,0.000000,0.000000
743.000000,0.000000,0.000000
744.000000,0.000000,0.000000
745.000000,0.000000,0.000000
746.000000,0.000000,0.000000
747.000000,0.000000,0.000000
748.000000,0.000000,0.000000
749.000000,0.000000,0.000000
750.000000,0.000000,0.000000
751.000000,0.000000,0.000000
752.000000,0.000000,0.000000
753.000000,0.000000,0.000000
754.000000,0.000000,0.000000
755.000000,0.000000,0.000000
756.000000,0.000000,0.000000
757.000000,0.000000,0.000000
758.000000,0.000000,0.000000
759.000000,0.000000,0.000000
760.000000,0.000000,0.000000
761.000000,0.000000,0.000000
762.000000,0.000000,0.000000
763.000000,0.000000,0.000000
764.000000,0.000000,0.000000
765.000000,0.000000,0.000000
766.000000,0.000000,0.000000
767.000000,0.000000,0.000000
768.000000,0.000000,0.000000
769.000000,0.000000,0.000000
770.000000,0.000000,0.000000
771.000000,0.000000,0.000000
772.000000,0.000000,0.000000
773.000000,0.000000,0.000000
774.000000,0.000000,0.000000
775.000000,0.000000,0.000000
776.000000,0.000000,0.000000
777.000000,0.000000,0.000000
778.000000,0.000000,0.000000
779.000000,0.000000,0.000000
780.000000,0.000000,0.000000
781.000000,0.000000,0.000000
782.000000,0.000000,0.000000
783.000000,0.000000,0.000000
784.000000,0.000000,0.000000
785.000000,0.000000,0.000000
786.000000,0.000000,0.000000
787.000000,0.000000,0.000000
788.000000,0.000000,0.000000
789.000000,0.000000,0.000000
790.000000,0.000000,0.000000
791.000000,0.000000,0.000000
792.000000,0.000000,0.000000
793.000000,0.000000,0.000000
794.000000,0.000000,0.000000
795.000000,0.000000,0.000000
796.000000,0.000000,0.000000
797.000000,0.000000,0.000000
798.000000,0.000000,0.000000
799.000000,0.000000,0.000000
800.000000,0.000000,0.000000
801.000000,0.000000,0.000000
802.000000,0.000000,0.000000
803.000000,0.000000,0.000000
804.000000,0.000000,0.000000
805.000000,0.000000,0.000000
806.000000,0.000000,0.000000
807.000000,0.000000,0.000000
808.000000,0.000000,0.000000
809.000000,0.000000,0.000000
810.000000,0.000000,0.000000
811.000000,0.000000,0.000000
812.000000,0.000000,0.000000
813.000000,0.000000,0.000000
814.000000,0.000000,0.000000
815.000000,0.000000,0.000000
816.000000,0.000000,0.000000
817.000000,0.000000,0.000000
818.000000,0.000000,0.000000
819.000000,0.000000,0.000000
820.000000,0.000000,0.000000
821.000000,0.000000,0.000000
822.000000,0.000000,0.000000
823.000000,0.000000,0.000000
824.000000,0.000000,0.000000
825.000000,0.000000,0.000000
826.000000,0.000000,0.000000
827.000000,0.000000,0.000000
828.000000,0.000000,0.000000
829.000000,0.000000,0.000000
830.000000,0.000000,0.000000
831.000000,0.000000,0.000000
832.000000,0.000000,0.000000
833.000000,0.000000,0.000000
834.000000,0.000000,0.000000
835.000000,0.000000,0.000000
836.000000,0.000000,0.000000
837.000000,0.000000,0.000000
838.000000,0.000000,0.000000
839.000000,0.000000,0.000000
840.000000,0.000000,0.000000
841.000000,0.000000,0.000000
842.000000,0.000000,0.000000
843.000000,0.000000,0.000000
844.000000,0.000000,0.000000
845.000000,0.000000,0.000000
846.000000,0.000000,0.000000
847.000000,0.000000,0.000000
848.000000,0.000000,0.000000
849.000000,0.000000,0.000000
850.000000,0.000000,0.000000
851.000000,0.000000,0.000000
852.000000,0.000000,0.000000
853.000000,0.000000,0.000000
854.000000,0.000000,0.000000
855.000000,0.000000,0.000000
856.000000,0.000000,0.000000
857.000000,0.000000,0.000000
858.000000,0.000000,0.000000
859.000000,0.000000,0.000000
860.000000,0.000000,0.000000
861.000000,0.000000,0.000000
862.000000,0.000000,0.000000
863.000000,0.000000,0.000000
864.000000,0.000000,0.000000
865.000000,0.000000,0.000000
866.000000,0.000000,0.000000
867.000000,0.000000,0.000000
868.000000,0.000000,0.000000
869.000000,0.000000,0.000000
870.000000,0.000000,0.000000
871.000000,0.000000,0.000000
872.000000,0.000000,0.000000
873.000000,0.000000,0.000000
874.000000,0.000000,0.000000
875.000000,0.000000,0.000000
876.000000,0.000000,0.000000
877.000000,0.000000,0.000000
878.000000,0.000000,0.000000
879.000000,0.000000,0.000000
880.000000,0.000000,0.000000
881.000000,0.000000,0.000000
882.000000,0.000000,0.000000
883.000000,0.000000,0.000000
884.000000,0.000000,0.000000
885.000000,0.000000,0.000000
886.000000,0.000000,0.000000
887.000000,0.000000,0.000000
888.000000,0.000000,0.000000
889.000000,0.000000,0.000000
890.000000,0.000000,0.000000
891.000000,0.000000,0.000000
892.000000,0.000000,0.000000
893.000000,0.000000,0.000000
894.000000,0.000000,0.000000
895.000000,0.000000,0.000000
896.000000,0.000000,0.000000
897.000000,0.000000,0.000000
898.000000,0.000000,0.000000
899.000000,0.000000,0.000000
