## Type: filter
## Name: 447/60
wavelength,transmission
265.0, 3.24e-06
265.2, 3.2e-06
265.4, 3.16e-06
265.6, 3.13e-06
265.8, 3.09e-06
266.0, 3.05e-06
266.2, 3.02e-06
266.4, 2.98e-06
266.6, 2.95e-06
266.8, 2.91e-06
267.0, 2.88e-06
267.2, 2.85e-06
267.4, 2.82e-06
267.6, 2.79e-06
267.8, 2.76e-06
268.0, 2.73e-06
268.2, 2.7e-06
268.4, 2.67e-06
268.6, 2.64e-06
268.8, 2.61e-06
269.0, 2.58e-06
269.2, 2.55e-06
269.4, 2.53e-06
269.6, 2.5e-06
269.8, 2.47e-06
270.0, 2.44e-06
270.2, 2.42e-06
270.4, 2.39e-06
270.6, 2.37e-06
270.8, 2.34e-06
271.0, 2.4e-06
271.2, 2.46e-06
271.4, 2.52e-06
271.6, 2.58e-06
271.8, 2.65e-06
272.0, 2.72e-06
272.2, 2.79e-06
272.4, 2.86e-06
272.6, 2.93e-06
272.8, 3.01e-06
273.0, 3.08e-06
273.2, 3.16e-06
273.4, 3.24e-06
273.6, 3.32e-06
273.8, 3.41e-06
274.0, 3.49e-06
274.2, 3.58e-06
274.4, 3.67e-06
274.6, 3.77e-06
274.8, 3.75e-06
275.0, 3.11e-06
275.2, 2.57e-06
275.4, 2.13e-06
275.6, 1.83e-06
275.8, 1.81e-06
276.0, 1.79e-06
276.2, 1.77e-06
276.4, 1.76e-06
276.6, 1.74e-06
276.8, 1.72e-06
277.0, 1.7e-06
277.2, 1.68e-06
277.4, 1.66e-06
277.6, 1.64e-06
277.8, 1.63e-06
278.0, 1.61e-06
278.2, 1.59e-06
278.4, 1.57e-06
278.6, 1.56e-06
278.8, 1.54e-06
279.0, 1.52e-06
279.2, 1.51e-06
279.4, 1.62e-06
279.6, 1.88e-06
279.8, 2.18e-06
280.0, 2.53e-06
280.2, 2.93e-06
280.4, 3.39e-06
280.6, 3.93e-06
280.8, 4.56e-06
281.0, 5.28e-06
281.2, 6.12e-06
281.4, 7.09e-06
281.6, 8.22e-06
281.8, 9.53e-06
282.0, 1.1e-05
282.2, 1.28e-05
282.4, 1.48e-05
282.6, 1.72e-05
282.8, 1.99e-05
283.0, 2.31e-05
283.2, 1.8e-05
283.4, 1.3e-05
283.6, 9.34e-06
283.8, 6.74e-06
284.0, 4.86e-06
284.2, 3.51e-06
284.4, 2.53e-06
284.6, 1.82e-06
284.8, 1.32e-06
285.0, 9.49e-07
285.2, 9.29e-07
285.4, 9.08e-07
285.6, 8.89e-07
285.8, 8.74e-07
286.0, 8.58e-07
286.2, 8.43e-07
286.4, 8.28e-07
286.6, 8.13e-07
286.8, 7.99e-07
287.0, 7.84e-07
287.2, 7.71e-07
287.4, 7.57e-07
287.6, 7.43e-07
287.8, 7.3e-07
288.0, 7.17e-07
288.2, 7.04e-07
288.4, 6.92e-07
288.6, 6.8e-07
288.8, 6.68e-07
289.0, 6.56e-07
289.2, 6.44e-07
289.4, 7.02e-07
289.6, 8.09e-07
289.8, 9.33e-07
290.0, 1.07e-06
290.2, 1.24e-06
290.4, 1.43e-06
290.6, 1.64e-06
290.8, 1.9e-06
291.0, 2.18e-06
291.2, 2.52e-06
291.4, 2.9e-06
291.6, 3.34e-06
291.8, 3.85e-06
292.0, 4.44e-06
292.2, 5.12e-06
292.4, 5.9e-06
292.6, 6.79e-06
292.8, 7.83e-06
293.0, 9.02e-06
293.2, 7.95e-06
293.4, 6.97e-06
293.6, 6.12e-06
293.8, 5.36e-06
294.0, 4.7e-06
294.2, 4.12e-06
294.4, 3.61e-06
294.6, 3.17e-06
294.8, 2.78e-06
295.0, 2.44e-06
295.2, 2.49e-06
295.4, 2.55e-06
295.6, 2.6e-06
295.8, 2.66e-06
296.0, 2.72e-06
296.2, 2.78e-06
296.4, 2.84e-06
296.6, 2.91e-06
296.8, 2.97e-06
297.0, 3.04e-06
297.2, 3.11e-06
297.4, 3.18e-06
297.6, 3.25e-06
297.8, 3.32e-06
298.0, 3.4e-06
298.2, 3.33e-06
298.4, 3.26e-06
298.6, 3.19e-06
298.8, 3.12e-06
299.0, 3.06e-06
299.2, 2.99e-06
299.4, 2.92e-06
299.6, 2.86e-06
299.8, 2.8e-06
300.0, 2.74e-06
300.2, 2.68e-06
300.4, 2.62e-06
300.6, 2.57e-06
300.8, 2.51e-06
301.0, 2.46e-06
301.2, 2.4e-06
301.4, 2.35e-06
301.6, 2.3e-06
301.8, 2.26e-06
302.0, 2.24e-06
302.2, 2.22e-06
302.4, 2.2e-06
302.6, 2.19e-06
302.8, 2.17e-06
303.0, 2.15e-06
303.2, 2.13e-06
303.4, 2.12e-06
303.6, 2.1e-06
303.8, 2.08e-06
304.0, 2.07e-06
304.2, 2.05e-06
304.4, 2.03e-06
304.6, 2.02e-06
304.8, 2.0e-06
305.0, 1.99e-06
305.2, 1.56e-06
305.4, 1.22e-06
305.6, 1.0e-06
305.8, 9.6e-07
306.0, 9.21e-07
306.2, 8.84e-07
306.4, 8.48e-07
306.6, 8.14e-07
306.8, 7.81e-07
307.0, 7.49e-07
307.2, 7.19e-07
307.4, 6.9e-07
307.6, 6.62e-07
307.8, 6.35e-07
308.0, 6.1e-07
308.2, 5.85e-07
308.4, 5.61e-07
308.6, 5.39e-07
308.8, 5.17e-07
309.0, 4.96e-07
309.2, 4.76e-07
309.4, 4.74e-07
309.6, 4.9e-07
309.8, 5.06e-07
310.0, 5.23e-07
310.2, 5.4e-07
310.4, 5.58e-07
310.6, 5.76e-07
310.8, 5.95e-07
311.0, 6.15e-07
311.2, 6.35e-07
311.4, 6.56e-07
311.6, 6.78e-07
311.8, 7.0e-07
312.0, 7.23e-07
312.2, 7.47e-07
312.4, 7.71e-07
312.6, 7.97e-07
312.8, 8.23e-07
313.0, 8.5e-07
313.2, 8.25e-07
313.4, 7.91e-07
313.6, 7.58e-07
313.8, 7.26e-07
314.0, 6.96e-07
314.2, 6.67e-07
314.4, 6.39e-07
314.6, 6.13e-07
314.8, 5.87e-07
315.0, 5.63e-07
315.2, 5.39e-07
315.4, 5.17e-07
315.6, 4.95e-07
315.8, 4.75e-07
316.0, 4.55e-07
316.2, 4.36e-07
316.4, 4.18e-07
316.6, 4.0e-07
316.8, 3.86e-07
317.0, 3.85e-07
317.2, 3.83e-07
317.4, 3.81e-07
317.6, 3.8e-07
317.8, 3.78e-07
318.0, 3.77e-07
318.2, 3.75e-07
318.4, 3.73e-07
318.6, 3.72e-07
318.8, 3.7e-07
319.0, 3.69e-07
319.2, 3.67e-07
319.4, 3.66e-07
319.6, 3.64e-07
319.8, 3.62e-07
320.0, 3.61e-07
320.2, 3.59e-07
320.4, 3.58e-07
320.6, 3.67e-07
320.8, 3.88e-07
321.0, 4.1e-07
321.2, 4.34e-07
321.4, 4.58e-07
321.6, 4.85e-07
321.8, 5.12e-07
322.0, 5.41e-07
322.2, 5.72e-07
322.4, 6.05e-07
322.6, 6.4e-07
322.8, 6.76e-07
323.0, 7.15e-07
323.2, 7.55e-07
323.4, 7.98e-07
323.6, 8.44e-07
323.8, 8.92e-07
324.0, 9.43e-07
324.2, 9.97e-07
324.4, 9.47e-07
324.6, 8.82e-07
324.8, 8.21e-07
325.0, 7.65e-07
325.2, 7.12e-07
325.4, 6.63e-07
325.6, 6.18e-07
325.8, 5.75e-07
326.0, 5.36e-07
326.2, 4.99e-07
326.4, 4.65e-07
326.6, 4.33e-07
326.8, 4.03e-07
327.0, 3.75e-07
327.2, 3.49e-07
327.4, 3.25e-07
327.6, 3.03e-07
327.8, 2.82e-07
328.0, 2.66e-07
328.2, 2.63e-07
328.4, 2.6e-07
328.6, 2.57e-07
328.8, 2.54e-07
329.0, 2.51e-07
329.2, 2.49e-07
329.4, 2.46e-07
329.6, 2.43e-07
329.8, 2.4e-07
330.0, 2.38e-07
330.2, 2.35e-07
330.4, 2.32e-07
330.6, 2.3e-07
330.8, 2.27e-07
331.0, 2.25e-07
331.2, 2.22e-07
331.4, 2.2e-07
331.6, 2.17e-07
331.8, 2.23e-07
332.0, 2.37e-07
332.2, 2.51e-07
332.4, 2.67e-07
332.6, 2.83e-07
332.8, 3.0e-07
333.0, 3.19e-07
333.2, 3.38e-07
333.4, 3.59e-07
333.6, 3.8e-07
333.8, 4.04e-07
334.0, 4.28e-07
334.2, 4.54e-07
334.4, 4.82e-07
334.6, 5.11e-07
334.8, 5.43e-07
335.0, 5.76e-07
335.2, 3.36e-07
335.4, 1.96e-07
335.6, 1.28e-07
335.8, 1.21e-07
336.0, 1.15e-07
336.2, 1.09e-07
336.4, 1.03e-07
336.6, 9.75e-08
336.8, 9.23e-08
337.0, 8.74e-08
337.2, 8.28e-08
337.4, 7.84e-08
337.6, 7.42e-08
337.8, 7.03e-08
338.0, 6.66e-08
338.2, 6.3e-08
338.4, 5.97e-08
338.6, 5.82e-08
338.8, 5.78e-08
339.0, 5.73e-08
339.2, 5.69e-08
339.4, 5.64e-08
339.6, 5.6e-08
339.8, 5.56e-08
340.0, 5.51e-08
340.2, 5.47e-08
340.4, 5.43e-08
340.6, 5.38e-08
340.8, 5.34e-08
341.0, 5.3e-08
341.2, 5.26e-08
341.4, 5.22e-08
341.6, 5.18e-08
341.8, 5.14e-08
342.0, 5.1e-08
342.2, 5.58e-08
342.4, 6.24e-08
342.6, 6.97e-08
342.8, 7.79e-08
343.0, 8.71e-08
343.2, 9.73e-08
343.4, 1.09e-07
343.6, 1.22e-07
343.8, 1.36e-07
344.0, 1.52e-07
344.2, 1.7e-07
344.4, 1.9e-07
344.6, 2.12e-07
344.8, 2.37e-07
345.0, 2.65e-07
345.2, 2.96e-07
345.4, 3.3e-07
345.6, 3.66e-07
345.8, 3.17e-07
346.0, 2.74e-07
346.2, 2.37e-07
346.4, 2.05e-07
346.6, 1.77e-07
346.8, 1.53e-07
347.0, 1.33e-07
347.2, 1.15e-07
347.4, 9.94e-08
347.6, 8.6e-08
347.8, 7.44e-08
348.0, 6.44e-08
348.2, 5.57e-08
348.4, 4.82e-08
348.6, 5.16e-08
348.8, 6.27e-08
349.0, 7.62e-08
349.2, 9.25e-08
349.4, 1.12e-07
349.6, 1.37e-07
349.8, 1.66e-07
350.0, 2.01e-07
350.2, 2.45e-07
350.4, 2.97e-07
350.6, 3.61e-07
350.8, 4.39e-07
351.0, 5.33e-07
351.2, 6.47e-07
351.4, 7.86e-07
351.6, 9.55e-07
351.8, 1.16e-06
352.0, 1.41e-06
352.2, 1.3e-06
352.4, 1.14e-06
352.6, 9.92e-07
352.8, 8.67e-07
353.0, 7.57e-07
353.2, 6.61e-07
353.4, 5.77e-07
353.6, 5.04e-07
353.8, 4.4e-07
354.0, 3.84e-07
354.2, 3.35e-07
354.4, 2.93e-07
354.6, 2.56e-07
354.8, 2.23e-07
355.0, 1.95e-07
355.2, 1.7e-07
355.4, 1.49e-07
355.6, 1.3e-07
355.8, 1.2e-07
356.0, 1.11e-07
356.2, 1.02e-07
356.4, 9.42e-08
356.6, 8.69e-08
356.8, 8.02e-08
357.0, 7.4e-08
357.2, 6.82e-08
357.4, 6.29e-08
357.6, 5.81e-08
357.8, 5.36e-08
358.0, 4.94e-08
358.2, 4.56e-08
358.4, 4.2e-08
358.6, 4.49e-08
358.8, 5.25e-08
359.0, 6.14e-08
359.2, 7.18e-08
359.4, 8.39e-08
359.6, 9.81e-08
359.8, 1.15e-07
360.0, 1.34e-07
360.2, 1.57e-07
360.4, 1.83e-07
360.6, 2.14e-07
360.8, 2.51e-07
361.0, 2.93e-07
361.2, 3.43e-07
361.4, 4.0e-07
361.6, 4.68e-07
361.8, 5.47e-07
362.0, 6.4e-07
362.2, 6.33e-07
362.4, 6.04e-07
362.6, 5.77e-07
362.8, 5.51e-07
363.0, 5.26e-07
363.2, 5.02e-07
363.4, 4.8e-07
363.6, 4.58e-07
363.8, 4.38e-07
364.0, 4.18e-07
364.2, 3.99e-07
364.4, 3.81e-07
364.6, 3.64e-07
364.8, 3.47e-07
365.0, 3.32e-07
365.2, 3.17e-07
365.4, 3.03e-07
365.6, 2.88e-07
365.8, 2.51e-07
366.0, 2.2e-07
366.2, 1.92e-07
366.4, 1.68e-07
366.6, 1.47e-07
366.8, 1.28e-07
367.0, 1.12e-07
367.2, 9.8e-08
367.4, 8.57e-08
367.6, 7.49e-08
367.8, 6.54e-08
368.0, 5.72e-08
368.2, 5.0e-08
368.4, 4.37e-08
368.6, 4.13e-08
368.8, 4.12e-08
369.0, 4.11e-08
369.2, 4.11e-08
369.4, 4.1e-08
369.6, 4.09e-08
369.8, 4.09e-08
370.0, 4.08e-08
370.2, 4.08e-08
370.4, 4.07e-08
370.6, 4.06e-08
370.8, 4.06e-08
371.0, 4.05e-08
371.2, 4.04e-08
371.4, 4.04e-08
371.6, 4.03e-08
371.8, 4.02e-08
372.0, 4.02e-08
372.2, 4.21e-08
372.4, 4.46e-08
372.6, 4.73e-08
372.8, 5.02e-08
373.0, 5.32e-08
373.2, 5.64e-08
373.4, 5.98e-08
373.6, 6.34e-08
373.8, 6.72e-08
374.0, 7.13e-08
374.2, 7.55e-08
374.4, 8.01e-08
374.6, 8.49e-08
374.8, 9.0e-08
375.0, 9.55e-08
375.2, 1.01e-07
375.4, 1.07e-07
375.6, 1.14e-07
375.8, 1.28e-07
376.0, 1.45e-07
376.2, 1.63e-07
376.4, 1.84e-07
376.6, 2.08e-07
376.8, 2.34e-07
377.0, 2.64e-07
377.2, 2.98e-07
377.4, 3.35e-07
377.6, 3.77e-07
377.8, 3.14e-07
378.0, 2.61e-07
378.2, 2.17e-07
378.4, 1.8e-07
378.6, 1.5e-07
378.8, 1.25e-07
379.0, 1.04e-07
379.2, 8.63e-08
379.4, 7.34e-08
379.6, 7.3e-08
379.8, 7.25e-08
380.0, 7.21e-08
380.2, 7.17e-08
380.4, 7.13e-08
380.6, 7.09e-08
380.8, 7.05e-08
381.0, 7.01e-08
381.2, 6.97e-08
381.4, 6.93e-08
381.6, 6.9e-08
381.8, 6.86e-08
382.0, 6.82e-08
382.2, 6.79e-08
382.4, 6.75e-08
382.6, 6.72e-08
382.8, 6.68e-08
383.0, 7.03e-08
383.2, 8.18e-08
383.4, 9.51e-08
383.6, 1.11e-07
383.8, 1.29e-07
384.0, 1.5e-07
384.2, 1.74e-07
384.4, 2.02e-07
384.6, 2.35e-07
384.8, 2.5e-07
385.0, 2.41e-07
385.2, 2.32e-07
385.4, 2.23e-07
385.6, 2.15e-07
385.8, 2.07e-07
386.0, 2.0e-07
386.2, 1.92e-07
386.4, 1.85e-07
386.6, 1.76e-07
386.8, 1.66e-07
387.0, 1.57e-07
387.2, 1.48e-07
387.4, 1.4e-07
387.6, 1.32e-07
387.8, 1.24e-07
388.0, 1.17e-07
388.2, 1.11e-07
388.4, 1.05e-07
388.6, 9.95e-08
388.8, 9.51e-08
389.0, 9.09e-08
389.2, 8.69e-08
389.4, 8.31e-08
389.6, 7.94e-08
389.8, 7.6e-08
390.0, 7.26e-08
390.2, 6.94e-08
390.4, 6.64e-08
390.6, 6.35e-08
390.8, 6.07e-08
391.0, 5.8e-08
391.2, 5.55e-08
391.4, 5.3e-08
391.6, 5.07e-08
391.8, 4.85e-08
392.0, 4.63e-08
392.2, 4.58e-08
392.4, 4.56e-08
392.6, 4.55e-08
392.8, 4.53e-08
393.0, 4.51e-08
393.2, 4.5e-08
393.4, 4.48e-08
393.6, 4.47e-08
393.8, 4.45e-08
394.0, 4.43e-08
394.2, 4.42e-08
394.4, 4.4e-08
394.6, 4.38e-08
394.8, 4.37e-08
395.0, 4.35e-08
395.2, 4.34e-08
395.4, 4.32e-08
395.6, 4.36e-08
395.8, 5.45e-08
396.0, 6.81e-08
396.2, 8.5e-08
396.4, 1.06e-07
396.6, 1.33e-07
396.8, 1.66e-07
397.0, 2.07e-07
397.2, 2.94e-07
397.4, 5.52e-07
397.6, 1.04e-06
397.8, 7.17e-07
398.0, 3.78e-07
398.2, 2.32e-07
398.4, 2.31e-07
398.6, 2.29e-07
398.8, 2.26e-07
399.0, 2.24e-07
399.2, 2.21e-07
399.4, 2.19e-07
399.6, 2.17e-07
399.8, 2.14e-07
400.0, 2.12e-07
400.2, 2.09e-07
400.4, 3.2e-07
400.6, 5.48e-07
400.8, 6.35e-07
401.0, 2.42e-07
401.2, 3.12e-07
401.4, 5.34e-07
401.6, 8.06e-07
401.8, 8.73e-07
402.0, 9.45e-07
402.2, 4.11e-07
402.4, 2.2e-07
402.6, 3.36e-07
402.8, 5.14e-07
403.0, 7.57e-07
403.2, 1.1e-06
403.4, 1.13e-06
403.6, 4.32e-07
403.8, 4.82e-07
404.0, 6.85e-07
404.2, 8.6e-07
404.4, 7.8e-07
404.6, 7.08e-07
404.8, 3.36e-07
405.0, 1.71e-07
405.2, 1.69e-07
405.4, 1.67e-07
405.6, 2.31e-07
405.8, 3.52e-07
406.0, 4.07e-07
406.2, 1.84e-07
406.4, 1.6e-07
406.6, 1.59e-07
406.8, 1.57e-07
407.0, 1.56e-07
407.2, 1.55e-07
407.4, 1.54e-07
407.6, 1.54e-07
407.8, 1.53e-07
408.0, 1.52e-07
408.2, 1.51e-07
408.4, 1.5e-07
408.6, 1.8e-07
408.8, 3.83e-07
409.0, 3.11e-07
409.2, 2.0e-07
409.4, 1.8e-07
409.6, 4.05e-07
409.8, 9.13e-07
410.0, 1.32e-06
410.2, 1.62e-06
410.4, 1.9e-06
410.6, 2.24e-06
410.8, 3.85e-06
411.0, 7.48e-06
411.2, 1.45e-05
411.4, 2.64e-05
411.6, 4.6e-05
411.8, 7.78e-05
412.0, 1.53e-04
412.2, 3.37e-04
412.4, 7.91e-04
412.6, 0.00288
412.8, 0.00636
413.0, 0.01723
413.2, 0.05685
413.4, 0.21566
413.6, 0.56749
413.8, 0.81674
414.0, 0.83291
414.2, 0.83679
414.4, 0.86676
414.6, 0.89673
414.8, 0.9113
415.0, 0.91541
415.2, 0.9198
415.4, 0.92724
415.6, 0.93786
415.8, 0.9503
416.0, 0.95717
416.2, 0.96092
416.4, 0.96261
416.6, 0.96274
416.8, 0.96156
417.0, 0.96235
417.2, 0.96192
417.4, 0.96288
417.6, 0.96695
417.8, 0.96819
418.0, 0.97022
418.2, 0.97238
418.4, 0.97433
418.6, 0.97501
418.8, 0.97536
419.0, 0.97667
419.2, 0.97716
419.4, 0.97677
419.6, 0.97769
419.8, 0.97815
420.0, 0.97886
420.2, 0.98056
420.4, 0.98116
420.6, 0.98218
420.8, 0.98173
421.0, 0.98192
421.2, 0.98014
421.4, 0.97774
421.6, 0.97683
421.8, 0.97412
422.0, 0.97324
422.2, 0.97311
422.4, 0.97267
422.6, 0.97146
422.8, 0.97201
423.0, 0.97373
423.2, 0.97483
423.4, 0.97669
423.6, 0.97791
423.8, 0.97975
424.0, 0.98019
424.2, 0.98263
424.4, 0.98376
424.6, 0.98413
424.8, 0.98597
425.0, 0.98588
425.2, 0.9857
425.4, 0.98509
425.6, 0.98381
425.8, 0.98085
426.0, 0.97895
426.2, 0.97583
426.4, 0.97292
426.6, 0.97114
426.8, 0.96944
427.0, 0.96922
427.2, 0.97045
427.4, 0.97133
427.6, 0.97306
427.8, 0.97455
428.0, 0.97789
428.2, 0.98004
428.4, 0.98225
428.6, 0.98375
428.8, 0.9856
429.0, 0.98557
429.2, 0.9855
429.4, 0.98609
429.6, 0.98549
429.8, 0.98549
430.0, 0.98673
430.2, 0.98544
430.4, 0.98683
430.6, 0.98636
430.8, 0.98669
431.0, 0.98625
431.2, 0.98605
431.4, 0.98587
431.6, 0.98424
431.8, 0.98408
432.0, 0.98199
432.2, 0.98199
432.4, 0.98078
432.6, 0.98019
432.8, 0.97962
433.0, 0.98014
433.2, 0.9818
433.4, 0.98109
433.6, 0.98273
433.8, 0.98425
434.0, 0.98553
434.2, 0.98654
434.4, 0.98659
434.6, 0.98732
434.8, 0.98681
435.0, 0.98582
435.2, 0.98487
435.4, 0.9833
435.6, 0.98177
435.8, 0.98066
436.0, 0.97959
436.2, 0.97899
436.4, 0.97802
436.6, 0.9789
436.8, 0.97986
437.0, 0.98131
437.2, 0.98228
437.4, 0.98367
437.6, 0.98507
437.8, 0.9867
438.0, 0.98662
438.2, 0.98774
438.4, 0.98669
438.6, 0.98628
438.8, 0.98479
439.0, 0.98394
439.2, 0.98244
439.4, 0.98051
439.6, 0.97999
439.8, 0.97861
440.0, 0.97799
440.2, 0.97855
440.4, 0.97801
440.6, 0.97836
440.8, 0.97901
441.0, 0.98026
441.2, 0.98094
441.4, 0.98212
441.6, 0.98256
441.8, 0.98345
442.0, 0.98353
442.2, 0.9836
442.4, 0.98389
442.6, 0.98384
442.8, 0.98294
443.0, 0.98126
443.2, 0.98054
443.4, 0.9806
443.6, 0.97907
443.8, 0.97817
444.0, 0.97739
444.2, 0.9756
444.4, 0.97649
444.6, 0.97533
444.8, 0.97498
445.0, 0.97481
445.2, 0.97494
445.4, 0.97467
445.6, 0.97451
445.8, 0.97505
446.0, 0.97623
446.2, 0.97744
446.4, 0.97749
446.6, 0.97896
446.8, 0.98042
447.0, 0.98196
447.2, 0.98301
447.4, 0.9849
447.6, 0.98605
447.8, 0.98768
448.0, 0.98811
448.2, 0.98933
448.4, 0.98927
448.6, 0.98875
448.8, 0.98923
449.0, 0.98764
449.2, 0.98673
449.4, 0.98528
449.6, 0.98455
449.8, 0.9829
450.0, 0.98214
450.2, 0.98121
450.4, 0.98062
450.6, 0.97998
450.8, 0.97983
451.0, 0.9806
451.2, 0.98156
451.4, 0.98278
451.6, 0.98353
451.8, 0.98477
452.0, 0.98655
452.2, 0.98671
452.4, 0.98792
452.6, 0.98824
452.8, 0.98744
453.0, 0.98746
453.2, 0.9869
453.4, 0.98509
453.6, 0.98366
453.8, 0.98223
454.0, 0.98049
454.2, 0.97908
454.4, 0.97791
454.6, 0.97753
454.8, 0.97723
455.0, 0.97719
455.2, 0.97902
455.4, 0.98028
455.6, 0.98191
455.8, 0.98377
456.0, 0.98566
456.2, 0.98768
456.4, 0.98944
456.6, 0.99057
456.8, 0.9913
457.0, 0.99141
457.2, 0.99123
457.4, 0.98875
457.6, 0.98779
457.8, 0.98402
458.0, 0.98144
458.2, 0.97955
458.4, 0.97677
458.6, 0.97615
458.8, 0.97409
459.0, 0.97357
459.2, 0.97292
459.4, 0.97522
459.6, 0.97577
459.8, 0.97708
460.0, 0.97864
460.2, 0.9813
460.4, 0.98252
460.6, 0.98459
460.8, 0.98535
461.0, 0.98615
461.2, 0.98616
461.4, 0.98569
461.6, 0.9849
461.8, 0.98368
462.0, 0.98259
462.2, 0.98147
462.4, 0.98064
462.6, 0.9793
462.8, 0.97904
463.0, 0.97834
463.2, 0.97875
463.4, 0.97906
463.6, 0.98003
463.8, 0.98134
464.0, 0.98275
464.2, 0.98355
464.4, 0.9841
464.6, 0.98412
464.8, 0.98386
465.0, 0.98292
465.2, 0.98175
465.4, 0.98067
465.6, 0.97953
465.8, 0.97881
466.0, 0.97717
466.2, 0.97607
466.4, 0.97628
466.6, 0.97545
466.8, 0.9765
467.0, 0.976
467.2, 0.97666
467.4, 0.97751
467.6, 0.97796
467.8, 0.97919
468.0, 0.9769
468.2, 0.97552
468.4, 0.97418
468.6, 0.97444
468.8, 0.97382
469.0, 0.97242
469.2, 0.97261
469.4, 0.9725
469.6, 0.97345
469.8, 0.97442
470.0, 0.97691
470.2, 0.97984
470.4, 0.98261
470.6, 0.9846
470.8, 0.98656
471.0, 0.98771
471.2, 0.98944
471.4, 0.98822
471.6, 0.98631
471.8, 0.98451
472.0, 0.98177
472.2, 0.97836
472.4, 0.97569
472.6, 0.97226
472.8, 0.97205
473.0, 0.97092
473.2, 0.97142
473.4, 0.97268
473.6, 0.97547
473.8, 0.97749
474.0, 0.97957
474.2, 0.98169
474.4, 0.98192
474.6, 0.98147
474.8, 0.98035
475.0, 0.9771
475.2, 0.97573
475.4, 0.9741
475.6, 0.9724
475.8, 0.97273
476.0, 0.97412
476.2, 0.97667
476.4, 0.98
476.6, 0.98263
476.8, 0.98449
477.0, 0.98516
477.2, 0.98501
477.4, 0.98391
477.6, 0.98163
477.8, 0.98072
478.0, 0.98069
478.2, 0.97915
478.4, 0.97602
478.6, 0.97009
478.8, 0.96002
479.0, 0.95038
479.2, 0.94647
479.4, 0.94982
479.6, 0.92754
479.8, 0.8011
480.0, 0.54532
480.2, 0.31825
480.4, 0.1451
480.6, 0.06215
480.8, 0.02843
481.0, 0.01407
481.2, 0.00746
481.4, 0.00362
481.6, 0.00158
481.8, 8.83e-04
482.0, 5.19e-04
482.2, 3.07e-04
482.4, 1.94e-04
482.6, 1.23e-04
482.8, 7.52e-05
483.0, 4.8e-05
483.2, 3.17e-05
483.4, 2.21e-05
483.6, 1.55e-05
483.8, 1.06e-05
484.0, 7.47e-06
484.2, 4.44e-06
484.4, 3.48e-06
484.6, 2.71e-06
484.8, 1.77e-06
485.0, 1.26e-06
485.2, 1.12e-06
485.4, 7.25e-07
485.6, 4.46e-07
485.8, 4.92e-07
486.0, 4.48e-07
486.2, 2.24e-07
486.4, 1.81e-07
486.6, 3.48e-07
486.8, 4.68e-07
487.0, 4.0e-07
487.2, 3.19e-07
487.4, 2.95e-07
487.6, 7.11e-08
487.8, 5.98e-08
488.0, 1.68e-07
488.2, 7.72e-08
488.4, 3.17e-07
488.6, 1.55e-07
488.8, 8.01e-08
489.0, 5.77e-08
489.2, 1.51e-07
489.4, 8.2e-08
489.6, 1.35e-07
489.8, 2.39e-07
490.0, 1.48e-07
490.2, 6.14e-08
490.4, 5.63e-08
490.6, 1.17e-07
490.8, 6.77e-08
491.0, 2.42e-07
491.2, 2.35e-07
491.4, 1.09e-07
491.6, 6.68e-08
491.8, 6.94e-08
492.0, 5.39e-08
492.2, 5.34e-08
492.4, 5.29e-08
492.6, 5.25e-08
492.8, 5.21e-08
493.0, 5.19e-08
493.2, 5.16e-08
493.4, 5.6e-08
493.6, 9.63e-08
493.8, 6.13e-08
494.0, 5.01e-08
494.2, 5.0e-08
494.4, 9.12e-08
494.6, 4.94e-08
494.8, 4.91e-08
495.0, 1.09e-07
495.2, 8.22e-08
495.4, 4.86e-08
495.6, 4.96e-08
495.8, 5.72e-08
496.0, 6.6e-08
496.2, 7.61e-08
496.4, 8.78e-08
496.6, 1.01e-07
496.8, 1.17e-07
497.0, 1.35e-07
497.2, 1.4e-07
497.4, 1.39e-07
497.6, 1.38e-07
497.8, 1.36e-07
498.0, 1.35e-07
498.2, 1.34e-07
498.4, 1.33e-07
498.6, 1.31e-07
498.8, 1.3e-07
499.0, 1.29e-07
499.2, 1.28e-07
499.4, 1.26e-07
499.6, 1.25e-07
499.8, 1.24e-07
500.0, 1.23e-07
500.2, 1.22e-07
500.4, 1.2e-07
500.6, 1.19e-07
500.8, 1.19e-07
501.0, 1.19e-07
501.2, 1.18e-07
501.4, 1.18e-07
501.6, 1.18e-07
501.8, 1.17e-07
502.0, 1.17e-07
502.2, 1.17e-07
502.4, 1.16e-07
502.6, 1.16e-07
502.8, 1.16e-07
503.0, 1.15e-07
503.2, 1.15e-07
503.4, 1.15e-07
503.6, 1.14e-07
503.8, 1.14e-07
504.0, 1.14e-07
504.2, 1.13e-07
504.4, 1.13e-07
504.6, 1.13e-07
504.8, 1.12e-07
505.0, 1.12e-07
505.2, 1.12e-07
505.4, 1.11e-07
505.6, 1.11e-07
505.8, 1.12e-07
506.0, 1.13e-07
506.2, 1.13e-07
506.4, 1.14e-07
506.6, 1.15e-07
506.8, 1.15e-07
507.0, 1.16e-07
507.2, 1.17e-07
507.4, 1.17e-07
507.6, 1.18e-07
507.8, 1.19e-07
508.0, 1.19e-07
508.2, 1.2e-07
508.4, 1.21e-07
508.6, 1.21e-07
508.8, 1.22e-07
509.0, 1.23e-07
509.2, 1.24e-07
509.4, 1.24e-07
509.6, 1.25e-07
509.8, 1.26e-07
510.0, 1.27e-07
510.2, 1.27e-07
510.4, 1.28e-07
510.6, 1.28e-07
510.8, 1.27e-07
511.0, 1.26e-07
511.2, 1.25e-07
511.4, 1.24e-07
511.6, 1.23e-07
511.8, 1.22e-07
512.0, 1.22e-07
512.2, 1.21e-07
512.4, 1.2e-07
512.6, 1.19e-07
512.8, 1.18e-07
513.0, 1.17e-07
513.2, 1.16e-07
513.4, 1.16e-07
513.6, 1.15e-07
513.8, 1.14e-07
514.0, 1.13e-07
514.2, 1.12e-07
514.4, 1.12e-07
514.6, 1.11e-07
514.8, 1.1e-07
515.0, 1.09e-07
515.2, 1.08e-07
515.4, 1.07e-07
515.6, 1.04e-07
515.8, 1.0e-07
516.0, 9.66e-08
516.2, 9.32e-08
516.4, 9.0e-08
516.6, 8.68e-08
516.8, 8.38e-08
517.0, 8.08e-08
517.2, 7.8e-08
517.4, 7.53e-08
517.6, 7.27e-08
517.8, 7.01e-08
518.0, 6.77e-08
518.2, 6.53e-08
518.4, 6.3e-08
518.6, 6.08e-08
518.8, 5.87e-08
519.0, 5.66e-08
519.2, 5.47e-08
519.4, 5.27e-08
519.6, 5.09e-08
519.8, 4.91e-08
520.0, 4.74e-08
520.2, 4.58e-08
520.4, 4.54e-08
520.6, 4.6e-08
520.8, 4.66e-08
521.0, 4.72e-08
521.2, 4.79e-08
521.4, 4.85e-08
521.6, 4.92e-08
521.8, 4.99e-08
522.0, 5.05e-08
522.2, 5.12e-08
522.4, 5.19e-08
522.6, 5.26e-08
522.8, 5.33e-08
523.0, 5.41e-08
523.2, 5.48e-08
523.4, 5.56e-08
523.6, 5.63e-08
523.8, 5.71e-08
524.0, 5.79e-08
524.2, 5.86e-08
524.4, 5.94e-08
524.6, 6.02e-08
524.8, 6.11e-08
525.0, 6.19e-08
525.2, 6.27e-08
525.4, 6.26e-08
525.6, 6.25e-08
525.8, 6.23e-08
526.0, 6.22e-08
526.2, 6.21e-08
526.4, 6.2e-08
526.6, 6.19e-08
526.8, 6.18e-08
527.0, 6.16e-08
527.2, 6.15e-08
527.4, 6.14e-08
527.6, 6.13e-08
527.8, 6.12e-08
528.0, 6.11e-08
528.2, 6.09e-08
528.4, 6.08e-08
528.6, 6.07e-08
528.8, 6.06e-08
529.0, 6.05e-08
529.2, 6.04e-08
529.4, 6.03e-08
529.6, 6.01e-08
529.8, 6.0e-08
530.0, 5.99e-08
530.2, 5.97e-08
530.4, 5.93e-08
530.6, 5.9e-08
530.8, 5.86e-08
531.0, 5.83e-08
531.2, 5.79e-08
531.4, 5.76e-08
531.6, 5.73e-08
531.8, 5.69e-08
532.0, 5.66e-08
532.2, 5.63e-08
532.4, 5.59e-08
532.6, 5.56e-08
532.8, 5.53e-08
533.0, 5.49e-08
533.2, 5.46e-08
533.4, 5.43e-08
533.6, 5.4e-08
533.8, 5.37e-08
534.0, 5.33e-08
534.2, 5.3e-08
534.4, 5.27e-08
534.6, 5.24e-08
534.8, 5.21e-08
535.0, 5.18e-08
535.2, 5.17e-08
535.4, 5.16e-08
535.6, 5.15e-08
535.8, 5.14e-08
536.0, 5.13e-08
536.2, 5.12e-08
536.4, 5.11e-08
536.6, 5.11e-08
536.8, 5.1e-08
537.0, 5.09e-08
537.2, 5.08e-08
537.4, 5.07e-08
537.6, 5.06e-08
537.8, 5.05e-08
538.0, 5.04e-08
538.2, 5.03e-08
538.4, 5.02e-08
538.6, 5.01e-08
538.8, 5.0e-08
539.0, 5.0e-08
539.2, 4.99e-08
539.4, 4.98e-08
539.6, 4.97e-08
539.8, 4.96e-08
540.0, 4.93e-08
540.2, 4.89e-08
540.4, 4.85e-08
540.6, 4.81e-08
540.8, 4.77e-08
541.0, 4.73e-08
541.2, 4.69e-08
541.4, 4.66e-08
541.6, 4.62e-08
541.8, 4.58e-08
542.0, 4.54e-08
542.2, 4.5e-08
542.4, 4.47e-08
542.6, 4.43e-08
542.8, 4.39e-08
543.0, 4.36e-08
543.2, 4.32e-08
543.4, 4.29e-08
543.6, 4.25e-08
543.8, 4.22e-08
544.0, 4.18e-08
544.2, 4.15e-08
544.4, 4.11e-08
544.6, 4.08e-08
544.8, 4.05e-08
545.0, 4.04e-08
545.2, 4.02e-08
545.4, 4.01e-08
545.6, 4.0e-08
545.8, 3.99e-08
546.0, 3.98e-08
546.2, 3.97e-08
546.4, 3.96e-08
546.6, 3.95e-08
546.8, 3.94e-08
547.0, 3.93e-08
547.2, 3.92e-08
547.4, 3.91e-08
547.6, 3.9e-08
547.8, 3.89e-08
548.0, 3.88e-08
548.2, 3.87e-08
548.4, 3.86e-08
548.6, 3.85e-08
548.8, 3.84e-08
549.0, 3.83e-08
549.2, 3.82e-08
549.4, 3.81e-08
549.6, 3.68e-08
549.8, 3.53e-08
550.0, 3.39e-08
550.2, 3.25e-08
550.4, 3.12e-08
550.6, 3.0e-08
550.8, 2.88e-08
551.0, 2.76e-08
551.2, 2.65e-08
551.4, 2.54e-08
551.6, 2.44e-08
551.8, 2.34e-08
552.0, 2.25e-08
552.2, 2.16e-08
552.4, 2.07e-08
552.6, 1.99e-08
552.8, 1.91e-08
553.0, 1.86e-08
553.2, 1.9e-08
553.4, 1.94e-08
553.6, 1.97e-08
553.8, 2.01e-08
554.0, 2.05e-08
554.2, 2.09e-08
554.4, 2.13e-08
554.6, 2.18e-08
554.8, 2.22e-08
555.0, 2.26e-08
555.2, 2.31e-08
555.4, 2.35e-08
555.6, 2.4e-08
555.8, 2.45e-08
556.0, 2.49e-08
556.2, 2.54e-08
556.4, 2.98e-08
556.6, 3.5e-08
556.8, 4.12e-08
557.0, 4.85e-08
557.2, 5.71e-08
557.4, 6.72e-08
557.6, 7.91e-08
557.8, 9.31e-08
558.0, 1.1e-07
558.2, 1.29e-07
558.4, 1.52e-07
558.6, 1.51e-07
558.8, 1.48e-07
559.0, 1.46e-07
559.2, 1.43e-07
559.4, 1.41e-07
559.6, 1.38e-07
559.8, 1.36e-07
560.0, 1.34e-07
560.2, 1.32e-07
560.4, 1.29e-07
560.6, 1.27e-07
560.8, 1.25e-07
561.0, 1.23e-07
561.2, 1.21e-07
561.4, 1.19e-07
561.6, 1.17e-07
561.8, 1.15e-07
562.0, 1.13e-07
562.2, 1.13e-07
562.4, 1.14e-07
562.6, 1.15e-07
562.8, 1.17e-07
563.0, 1.18e-07
563.2, 1.2e-07
563.4, 1.21e-07
563.6, 1.23e-07
563.8, 1.24e-07
564.0, 1.26e-07
564.2, 1.28e-07
564.4, 1.29e-07
564.6, 1.31e-07
564.8, 1.33e-07
565.0, 1.34e-07
565.2, 1.36e-07
565.4, 1.38e-07
565.6, 1.39e-07
565.8, 1.41e-07
566.0, 1.38e-07
566.2, 1.36e-07
566.4, 1.34e-07
566.6, 1.32e-07
566.8, 1.29e-07
567.0, 1.27e-07
567.2, 1.25e-07
567.4, 1.23e-07
567.6, 1.21e-07
567.8, 1.19e-07
568.0, 1.17e-07
568.2, 1.15e-07
568.4, 1.13e-07
568.6, 1.11e-07
568.8, 1.1e-07
569.0, 1.08e-07
569.2, 1.06e-07
569.4, 1.04e-07
569.6, 1.02e-07
569.8, 9.93e-08
570.0, 9.69e-08
570.2, 9.44e-08
570.4, 9.21e-08
570.6, 8.98e-08
570.8, 8.76e-08
571.0, 8.54e-08
571.2, 8.33e-08
571.4, 8.12e-08
571.6, 7.92e-08
571.8, 7.72e-08
572.0, 7.53e-08
572.2, 7.34e-08
572.4, 7.16e-08
572.6, 6.98e-08
572.8, 6.81e-08
573.0, 6.64e-08
573.2, 6.49e-08
573.4, 6.39e-08
573.6, 6.3e-08
573.8, 6.2e-08
574.0, 6.11e-08
574.2, 6.02e-08
574.4, 5.92e-08
574.6, 5.83e-08
574.8, 5.75e-08
575.0, 5.66e-08
575.2, 5.57e-08
575.4, 5.49e-08
575.6, 5.41e-08
575.8, 5.33e-08
576.0, 5.24e-08
576.2, 5.17e-08
576.4, 5.09e-08
576.6, 5.01e-08
576.8, 4.93e-08
577.0, 4.88e-08
577.2, 4.83e-08
577.4, 4.78e-08
577.6, 4.73e-08
577.8, 4.68e-08
578.0, 4.64e-08
578.2, 4.59e-08
578.4, 4.54e-08
578.6, 4.5e-08
578.8, 4.45e-08
579.0, 4.41e-08
579.2, 4.36e-08
579.4, 4.32e-08
579.6, 4.27e-08
579.8, 4.23e-08
580.0, 4.19e-08
580.2, 4.14e-08
580.4, 4.1e-08
580.6, 4.09e-08
580.8, 4.12e-08
581.0, 4.15e-08
581.2, 4.18e-08
581.4, 4.21e-08
581.6, 4.24e-08
581.8, 4.28e-08
582.0, 4.31e-08
582.2, 4.34e-08
582.4, 4.37e-08
582.6, 4.4e-08
582.8, 4.44e-08
583.0, 4.47e-08
583.2, 4.5e-08
583.4, 4.54e-08
583.6, 4.57e-08
583.8, 4.6e-08
584.0, 4.64e-08
584.2, 4.66e-08
584.4, 4.61e-08
584.6, 4.56e-08
584.8, 4.51e-08
585.0, 4.46e-08
585.2, 4.41e-08
585.4, 4.36e-08
585.6, 4.31e-08
585.8, 4.26e-08
586.0, 4.21e-08
586.2, 4.16e-08
586.4, 4.11e-08
586.6, 4.07e-08
586.8, 4.02e-08
587.0, 3.98e-08
587.2, 3.93e-08
587.4, 3.89e-08
587.6, 3.84e-08
587.8, 3.8e-08
588.0, 3.75e-08
588.2, 3.7e-08
588.4, 3.65e-08
588.6, 3.6e-08
588.8, 3.56e-08
589.0, 3.51e-08
589.2, 3.46e-08
589.4, 3.42e-08
589.6, 3.37e-08
589.8, 3.33e-08
590.0, 3.28e-08
590.2, 3.24e-08
590.4, 3.19e-08
590.6, 3.15e-08
590.8, 3.11e-08
591.0, 3.07e-08
591.2, 3.03e-08
591.4, 2.99e-08
591.6, 2.99e-08
591.8, 3.09e-08
592.0, 3.19e-08
592.2, 3.29e-08
592.4, 3.39e-08
592.6, 3.5e-08
592.8, 3.61e-08
593.0, 3.73e-08
593.2, 3.85e-08
593.4, 3.97e-08
593.6, 4.09e-08
593.8, 4.22e-08
594.0, 4.36e-08
594.2, 4.5e-08
594.4, 4.64e-08
594.6, 4.79e-08
594.8, 4.94e-08
595.0, 5.1e-08
595.2, 5.26e-08
595.4, 5.17e-08
595.6, 5.09e-08
595.8, 5.01e-08
596.0, 4.93e-08
596.2, 4.85e-08
596.4, 4.77e-08
596.6, 4.69e-08
596.8, 4.62e-08
597.0, 4.54e-08
597.2, 4.47e-08
597.4, 4.4e-08
597.6, 4.33e-08
597.8, 4.26e-08
598.0, 4.19e-08
598.2, 4.12e-08
598.4, 4.05e-08
598.6, 3.99e-08
598.8, 3.92e-08
599.0, 4.03e-08
599.2, 4.25e-08
599.4, 4.47e-08
599.6, 4.71e-08
599.8, 4.95e-08
600.0, 5.22e-08
600.2, 5.49e-08
600.4, 5.78e-08
600.6, 6.08e-08
600.8, 6.41e-08
601.0, 6.74e-08
601.2, 7.1e-08
601.4, 7.47e-08
601.6, 7.87e-08
601.8, 8.28e-08
602.0, 8.72e-08
602.2, 9.18e-08
602.4, 9.66e-08
602.6, 9.87e-08
602.8, 9.46e-08
603.0, 9.08e-08
603.2, 8.71e-08
603.4, 8.35e-08
603.6, 8.01e-08
603.8, 7.69e-08
604.0, 7.37e-08
604.2, 7.07e-08
604.4, 6.79e-08
604.6, 6.51e-08
604.8, 6.24e-08
605.0, 5.99e-08
605.2, 5.75e-08
605.4, 5.51e-08
605.6, 5.29e-08
605.8, 5.07e-08
606.0, 4.87e-08
606.2, 4.67e-08
606.4, 4.28e-08
606.6, 3.93e-08
606.8, 3.61e-08
607.0, 3.31e-08
607.2, 3.04e-08
607.4, 2.79e-08
607.6, 2.56e-08
607.8, 2.35e-08
608.0, 2.16e-08
608.2, 3.22e-08
608.4, 4.8e-08
608.6, 7.16e-08
608.8, 1.0e-07
609.0, 1.0e-07
609.2, 1.0e-07
609.4, 1.0e-07
609.6, 1.0e-07
609.8, 1.0e-07
610.0, 1.0e-07
610.2, 1.0e-07
610.4, 1.0e-07
610.6, 1.0e-07
610.8, 1.0e-07
611.0, 1.0e-07
611.2, 1.0e-07
611.4, 1.0e-07
611.6, 1.0e-07
611.8, 1.0e-07
612.0, 1.0e-07
612.2, 1.0e-07
612.4, 1.0e-07
612.6, 1.0e-07
612.8, 1.0e-07
613.0, 1.0e-07
613.2, 1.0e-07
613.4, 1.0e-07
613.6, 1.0e-07
613.8, 1.0e-07
614.0, 1.0e-07
614.2, 1.0e-07
614.4, 1.0e-07
614.6, 1.0e-07
614.8, 1.0e-07
615.0, 1.0e-07
615.2, 1.0e-07
615.4, 1.0e-07
615.6, 1.0e-07
615.8, 1.0e-07
616.0, 1.0e-07
616.2, 1.0e-07
616.4, 1.0e-07
616.6, 1.0e-07
616.8, 1.0e-07
617.0, 1.0e-07
617.2, 1.0e-07
617.4, 1.0e-07
617.6, 1.0e-07
617.8, 1.0e-07
618.0, 1.0e-07
618.2, 1.0e-07
618.4, 1.0e-07
618.6, 1.0e-07
618.8, 1.0e-07
619.0, 1.0e-07
619.2, 1.0e-07
619.4, 1.0e-07
619.6, 1.0e-07
619.8, 1.0e-07
620.0, 1.0e-07
620.2, 1.0e-07
620.4, 1.0e-07
620.6, 1.0e-07
620.8, 1.0e-07
621.0, 1.0e-07
621.2, 1.0e-07
621.4, 1.0e-07
621.6, 1.0e-07
621.8, 1.0e-07
622.0, 1.0e-07
622.2, 1.0e-07
622.4, 1.0e-07
622.6, 1.0e-07
622.8, 1.0e-07
623.0, 1.0e-07
623.2, 1.0e-07
623.4, 1.0e-07
623.6, 1.0e-07
623.8, 1.0e-07
624.0, 1.0e-07
624.2, 1.0e-07
624.4, 1.0e-07
624.6, 1.0e-07
624.8, 1.0e-07
625.0, 1.0e-07
625.2, 1.0e-07
625.4, 1.0e-07
625.6, 1.0e-07
625.8, 1.0e-07
626.0, 1.0e-07
626.2, 1.0e-07
626.4, 1.0e-07
626.6, 1.0e-07
626.8, 1.0e-07
627.0, 1.0e-07
627.2, 1.0e-07
627.4, 1.0e-07
627.6, 1.0e-07
627.8, 1.0e-07
628.0, 1.0e-07
628.2, 1.0e-07
628.4, 1.0e-07
628.6, 1.0e-07
628.8, 1.0e-07
629.0, 1.0e-07
629.2, 1.0e-07
629.4, 1.0e-07
629.6, 1.0e-07
629.8, 1.0e-07
630.0, 1.0e-07
630.2, 1.0e-07
630.4, 1.0e-07
630.6, 1.0e-07
630.8, 1.0e-07
631.0, 1.0e-07
631.2, 1.0e-07
631.4, 1.0e-07
631.6, 1.0e-07
631.8, 1.0e-07
632.0, 1.0e-07
632.2, 1.0e-07
632.4, 1.0e-07
632.6, 1.0e-07
632.8, 1.0e-07
633.0, 1.0e-07
633.2, 1.0e-07
633.4, 1.0e-07
633.6, 1.0e-07
633.8, 1.0e-07
634.0, 1.0e-07
634.2, 1.0e-07
634.4, 1.0e-07
634.6, 1.0e-07
634.8, 1.0e-07
635.0, 1.0e-07
635.2, 1.0e-07
635.4, 1.0e-07
635.6, 1.0e-07
635.8, 1.0e-07
636.0, 1.0e-07
636.2, 1.0e-07
636.4, 1.0e-07
636.6, 1.0e-07
636.8, 1.0e-07
637.0, 1.0e-07
637.2, 1.0e-07
637.4, 1.0e-07
637.6, 1.0e-07
637.8, 1.0e-07
638.0, 1.0e-07
638.2, 1.0e-07
638.4, 1.0e-07
638.6, 1.0e-07
638.8, 1.0e-07
639.0, 1.0e-07
639.2, 1.0e-07
639.4, 1.0e-07
639.6, 1.0e-07
639.8, 1.0e-07
640.0, 1.0e-07
640.2, 1.0e-07
640.4, 1.0e-07
640.6, 1.0e-07
640.8, 1.0e-07
641.0, 1.0e-07
641.2, 1.0e-07
641.4, 1.0e-07
641.6, 1.0e-07
641.8, 1.0e-07
642.0, 1.0e-07
642.2, 1.0e-07
642.4, 1.0e-07
642.6, 1.0e-07
642.8, 1.0e-07
643.0, 1.0e-07
643.2, 1.0e-07
643.4, 1.0e-07
643.6, 1.0e-07
643.8, 1.0e-07
644.0, 1.0e-07
644.2, 1.0e-07
644.4, 1.0e-07
644.6, 1.0e-07
644.8, 1.0e-07
645.0, 1.0e-07
645.2, 1.0e-07
645.4, 1.0e-07
645.6, 1.0e-07
645.8, 1.0e-07
646.0, 1.0e-07
646.2, 1.0e-07
646.4, 1.0e-07
646.6, 1.0e-07
646.8, 1.0e-07
647.0, 1.0e-07
647.2, 1.0e-07
647.4, 1.0e-07
647.6, 1.0e-07
647.8, 1.0e-07
648.0, 1.0e-07
648.2, 1.0e-07
648.4, 1.0e-07
648.6, 1.0e-07
648.8, 1.0e-07
649.0, 1.0e-07
649.2, 1.0e-07
649.4, 1.0e-07
649.6, 1.0e-07
649.8, 1.0e-07
650.0, 1.0e-07
650.2, 1.0e-07
650.4, 1.0e-07
650.6, 1.0e-07
650.8, 1.0e-07
651.0, 1.0e-07
651.2, 1.0e-07
651.4, 1.0e-07
651.6, 1.0e-07
651.8, 1.0e-07
652.0, 1.0e-07
652.2, 1.0e-07
652.4, 1.0e-07
652.6, 1.0e-07
652.8, 1.0e-07
653.0, 1.0e-07
653.2, 1.0e-07
653.4, 1.0e-07
653.6, 1.0e-07
653.8, 1.0e-07
654.0, 1.0e-07
654.2, 1.0e-07
654.4, 1.0e-07
654.6, 1.0e-07
654.8, 1.0e-07
655.0, 1.0e-07
655.2, 1.0e-07
655.4, 1.0e-07
655.6, 1.0e-07
655.8, 1.0e-07
656.0, 1.0e-07
656.2, 1.0e-07
656.4, 1.0e-07
656.6, 1.0e-07
656.8, 1.0e-07
657.0, 1.0e-07
657.2, 1.0e-07
657.4, 1.0e-07
657.6, 1.0e-07
657.8, 1.0e-07
658.0, 1.0e-07
658.2, 1.0e-07
658.4, 1.0e-07
658.6, 1.0e-07
658.8, 1.0e-07
659.0, 1.0e-07
659.2, 1.0e-07
659.4, 1.0e-07
659.6, 1.0e-07
659.8, 1.0e-07
660.0, 1.0e-07
660.2, 1.0e-07
660.4, 1.0e-07
660.6, 1.0e-07
660.8, 1.0e-07
661.0, 1.0e-07
661.2, 1.0e-07
661.4, 1.0e-07
661.6, 1.0e-07
661.8, 1.0e-07
662.0, 1.0e-07
662.2, 1.0e-07
662.4, 1.0e-07
662.6, 1.0e-07
662.8, 1.0e-07
663.0, 1.0e-07
663.2, 1.0e-07
663.4, 1.0e-07
663.6, 1.0e-07
663.8, 1.0e-07
664.0, 1.0e-07
664.2, 1.0e-07
664.4, 1.0e-07
664.6, 1.0e-07
664.8, 1.0e-07
665.0, 1.0e-07
665.2, 1.0e-07
665.4, 1.0e-07
665.6, 1.0e-07
665.8, 1.0e-07
666.0, 1.0e-07
666.2, 1.0e-07
666.4, 1.0e-07
666.6, 1.0e-07
666.8, 1.0e-07
667.0, 1.0e-07
667.2, 1.0e-07
667.4, 1.0e-07
667.6, 1.0e-07
667.8, 1.0e-07
668.0, 1.0e-07
668.2, 1.0e-07
668.4, 1.0e-07
668.6, 1.0e-07
668.8, 1.0e-07
669.0, 1.0e-07
669.2, 1.0e-07
669.4, 1.0e-07
669.6, 1.0e-07
669.8, 1.0e-07
670.0, 1.0e-07
670.2, 1.0e-07
670.4, 1.0e-07
670.6, 1.0e-07
670.8, 1.0e-07
671.0, 1.0e-07
671.2, 1.0e-07
671.4, 1.0e-07
671.6, 1.0e-07
671.8, 1.0e-07
672.0, 1.0e-07
672.2, 1.0e-07
672.4, 1.0e-07
672.6, 1.0e-07
672.8, 1.0e-07
673.0, 1.0e-07
673.2, 1.0e-07
673.4, 1.0e-07
673.6, 1.0e-07
673.8, 1.0e-07
674.0, 1.0e-07
674.2, 1.0e-07
674.4, 1.0e-07
674.6, 1.0e-07
674.8, 1.0e-07
675.0, 1.0e-07
675.2, 1.0e-07
675.4, 1.0e-07
675.6, 1.0e-07
675.8, 1.0e-07
676.0, 1.0e-07
676.2, 1.0e-07
676.4, 1.0e-07
676.6, 1.0e-07
676.8, 1.0e-07
677.0, 1.0e-07
677.2, 1.0e-07
677.4, 1.0e-07
677.6, 1.0e-07
677.8, 1.0e-07
678.0, 1.0e-07
678.2, 1.0e-07
678.4, 1.0e-07
678.6, 1.0e-07
678.8, 1.0e-07
679.0, 1.0e-07
679.2, 1.0e-07
679.4, 1.0e-07
679.6, 1.0e-07
679.8, 1.0e-07
680.0, 1.0e-07
680.2, 1.0e-07
680.4, 1.0e-07
680.6, 1.0e-07
680.8, 1.0e-07
681.0, 1.0e-07
681.2, 1.0e-07
681.4, 1.0e-07
681.6, 1.0e-07
681.8, 1.0e-07
682.0, 1.0e-07
682.2, 1.0e-07
682.4, 1.0e-07
682.6, 1.0e-07
682.8, 1.0e-07
683.0, 1.0e-07
683.2, 1.0e-07
683.4, 1.0e-07
683.6, 1.0e-07
683.8, 1.0e-07
684.0, 1.0e-07
684.2, 1.0e-07
684.4, 1.0e-07
684.6, 1.0e-07
684.8, 1.0e-07
685.0, 1.0e-07
685.2, 1.0e-07
685.4, 1.0e-07
685.6, 1.0e-07
685.8, 1.0e-07
686.0, 1.0e-07
686.2, 1.0e-07
686.4, 1.0e-07
686.6, 1.0e-07
686.8, 1.0e-07
687.0, 1.0e-07
687.2, 1.0e-07
687.4, 1.0e-07
687.6, 1.0e-07
687.8, 1.0e-07
688.0, 1.0e-07
688.2, 1.0e-07
688.4, 1.0e-07
688.6, 1.0e-07
688.8, 1.0e-07
689.0, 1.0e-07
689.2, 1.0e-07
689.4, 1.0e-07
689.6, 1.0e-07
689.8, 1.0e-07
690.0, 1.0e-07
690.2, 1.0e-07
690.4, 1.0e-07
690.6, 1.0e-07
690.8, 1.0e-07
691.0, 1.0e-07
691.2, 1.0e-07
691.4, 1.0e-07
691.6, 1.0e-07
691.8, 1.0e-07
692.0, 1.0e-07
692.2, 1.0e-07
692.4, 1.0e-07
692.6, 1.0e-07
692.8, 1.0e-07
693.0, 1.0e-07
693.2, 1.0e-07
693.4, 1.0e-07
693.6, 1.0e-07
693.8, 1.0e-07
694.0, 1.0e-07
694.2, 1.0e-07
694.4, 1.0e-07
694.6, 1.0e-07
694.8, 1.0e-07
695.0, 1.0e-07
695.2, 1.0e-07
695.4, 1.0e-07
695.6, 1.0e-07
695.8, 1.0e-07
696.0, 1.0e-07
696.2, 1.0e-07
696.4, 1.0e-07
696.6, 1.0e-07
696.8, 1.0e-07
697.0, 1.0e-07
697.2, 1.0e-07
697.4, 1.0e-07
697.6, 1.0e-07
697.8, 1.0e-07
698.0, 1.0e-07
698.2, 1.0e-07
698.4, 1.0e-07
698.6, 1.0e-07
698.8, 1.0e-07
699.0, 1.0e-07
699.2, 1.0e-07
699.4, 1.0e-07
699.6, 1.0e-07
699.8, 1.0e-07
700.0, 1.0e-07
700.2, 1.0e-07
700.4, 1.0e-07
700.6, 1.0e-07
700.8, 1.0e-07
701.0, 1.0e-07
701.2, 1.0e-07
701.4, 1.0e-07
701.6, 1.0e-07
701.8, 1.0e-07
702.0, 1.0e-07
702.2, 1.0e-07
702.4, 1.0e-07
702.6, 1.0e-07
702.8, 1.0e-07
703.0, 1.0e-07
703.2, 1.0e-07
703.4, 1.0e-07
703.6, 1.0e-07
703.8, 1.0e-07
704.0, 1.0e-07
704.2, 1.0e-07
704.4, 1.0e-07
704.6, 1.0e-07
704.8, 1.0e-07
705.0, 1.0e-07
705.2, 1.0e-07
705.4, 1.0e-07
705.6, 1.0e-07
705.8, 1.0e-07
706.0, 1.0e-07
706.2, 1.0e-07
706.4, 1.0e-07
706.6, 1.0e-07
706.8, 1.0e-07
707.0, 1.0e-07
707.2, 1.0e-07
707.4, 1.0e-07
707.6, 1.0e-07
707.8, 1.0e-07
708.0, 1.0e-07
708.2, 1.0e-07
708.4, 1.0e-07
708.6, 1.0e-07
708.8, 1.0e-07
709.0, 1.0e-07
709.2, 1.0e-07
709.4, 1.0e-07
709.6, 1.0e-07
709.8, 1.0e-07
710.0, 1.0e-07
710.2, 1.0e-07
710.4, 1.0e-07
710.6, 1.0e-07
710.8, 1.0e-07
711.0, 1.0e-07
711.2, 1.0e-07
711.4, 1.0e-07
711.6, 1.0e-07
711.8, 1.01e-07
712.0, 1.01e-07
712.2, 1.01e-07
712.4, 1.01e-07
712.6, 1.01e-07
712.8, 1.01e-07
713.0, 1.01e-07
713.2, 1.01e-07
713.4, 1.01e-07
713.6, 1.01e-07
713.8, 1.01e-07
714.0, 1.01e-07
714.2, 1.08e-07
714.4, 1.24e-07
714.6, 1.43e-07
714.8, 1.65e-07
715.0, 1.9e-07
715.2, 2.19e-07
715.4, 2.53e-07
715.6, 2.92e-07
715.8, 3.36e-07
716.0, 3.87e-07
716.2, 4.46e-07
716.4, 5.15e-07
716.6, 5.93e-07
716.8, 6.84e-07
717.0, 7.88e-07
717.2, 9.08e-07
717.4, 1.05e-06
717.6, 1.21e-06
717.8, 1.34e-06
718.0, 1.3e-06
718.2, 1.26e-06
718.4, 1.22e-06
718.6, 1.18e-06
718.8, 1.14e-06
719.0, 1.1e-06
719.2, 1.07e-06
719.4, 1.03e-06
719.6, 1.0e-06
719.8, 9.68e-07
720.0, 9.37e-07
720.2, 9.07e-07
720.4, 8.78e-07
720.6, 8.5e-07
720.8, 8.23e-07
721.0, 7.97e-07
721.2, 7.71e-07
721.4, 7.47e-07
721.6, 7.99e-07
721.8, 8.55e-07
722.0, 9.15e-07
722.2, 9.79e-07
722.4, 1.05e-06
722.6, 1.12e-06
722.8, 1.2e-06
723.0, 1.28e-06
723.2, 1.37e-06
723.4, 1.47e-06
723.6, 1.57e-06
723.8, 1.68e-06
724.0, 1.8e-06
724.2, 1.92e-06
724.4, 2.06e-06
724.6, 2.2e-06
724.8, 2.36e-06
725.0, 2.52e-06
725.2, 2.62e-06
725.4, 2.71e-06
725.6, 2.8e-06
725.8, 2.89e-06
726.0, 2.99e-06
726.2, 3.09e-06
726.4, 3.19e-06
726.6, 3.29e-06
726.8, 3.4e-06
727.0, 3.52e-06
727.2, 3.63e-06
727.4, 3.75e-06
727.6, 3.88e-06
727.8, 4.0e-06
728.0, 4.14e-06
728.2, 4.27e-06
728.4, 4.42e-06
728.6, 4.56e-06
728.8, 4.62e-06
729.0, 4.62e-06
729.2, 4.61e-06
729.4, 4.61e-06
729.6, 4.61e-06
729.8, 4.61e-06
730.0, 4.61e-06
730.2, 4.61e-06
730.4, 4.6e-06
730.6, 4.6e-06
730.8, 4.6e-06
731.0, 4.6e-06
731.2, 4.6e-06
731.4, 4.59e-06
731.6, 4.59e-06
731.8, 4.59e-06
732.0, 4.59e-06
732.2, 4.59e-06
732.4, 4.57e-06
732.6, 4.52e-06
732.8, 4.47e-06
733.0, 4.42e-06
733.2, 4.38e-06
733.4, 4.33e-06
733.6, 4.29e-06
733.8, 4.24e-06
734.0, 4.2e-06
734.2, 4.15e-06
734.4, 4.11e-06
734.6, 4.07e-06
734.8, 4.03e-06
735.0, 3.98e-06
735.2, 3.94e-06
735.4, 3.9e-06
735.6, 3.86e-06
735.8, 3.82e-06
736.0, 3.73e-06
736.2, 3.53e-06
736.4, 3.33e-06
736.6, 3.15e-06
736.8, 2.97e-06
737.0, 2.81e-06
737.2, 2.65e-06
737.4, 2.5e-06
737.6, 2.36e-06
737.8, 2.23e-06
738.0, 2.11e-06
738.2, 1.88e-06
738.4, 1.67e-06
738.6, 1.49e-06
738.8, 1.33e-06
739.0, 1.18e-06
739.2, 1.08e-06
739.4, 9.99e-07
739.6, 9.21e-07
739.8, 8.49e-07
740.0, 7.83e-07
740.2, 7.22e-07
740.4, 6.65e-07
740.6, 6.13e-07
740.8, 5.66e-07
741.0, 5.21e-07
741.2, 4.81e-07
741.4, 4.43e-07
741.6, 4.08e-07
741.8, 3.77e-07
742.0, 3.47e-07
742.2, 3.2e-07
742.4, 2.95e-07
742.6, 2.72e-07
742.8, 2.48e-07
743.0, 2.23e-07
743.2, 2.02e-07
743.4, 1.82e-07
743.6, 1.64e-07
743.8, 1.48e-07
744.0, 1.34e-07
744.2, 1.21e-07
744.4, 1.09e-07
744.6, 9.81e-08
744.8, 8.85e-08
745.0, 7.99e-08
745.2, 7.21e-08
745.4, 6.5e-08
745.6, 5.87e-08
745.8, 5.29e-08
746.0, 4.78e-08
746.2, 4.31e-08
746.4, 4.08e-08
746.6, 4.24e-08
746.8, 4.41e-08
747.0, 4.58e-08
747.2, 4.76e-08
747.4, 4.94e-08
747.6, 5.14e-08
747.8, 5.34e-08
748.0, 5.55e-08
748.2, 5.76e-08
748.4, 5.99e-08
748.6, 6.22e-08
748.8, 6.47e-08
749.0, 6.72e-08
749.2, 6.98e-08
749.4, 7.26e-08
749.6, 7.54e-08
749.8, 7.84e-08
750.0, 8.17e-08
750.2, 8.79e-08
750.4, 9.45e-08
750.6, 1.02e-07
750.8, 1.09e-07
751.0, 1.18e-07
751.2, 1.26e-07
751.4, 1.36e-07
751.6, 1.46e-07
751.8, 1.57e-07
752.0, 1.69e-07
752.2, 1.82e-07
752.4, 1.96e-07
752.6, 2.1e-07
752.8, 2.26e-07
753.0, 2.43e-07
753.2, 2.62e-07
753.4, 2.81e-07
753.6, 3.03e-07
753.8, 3.17e-07
754.0, 3.3e-07
754.2, 3.44e-07
754.4, 3.59e-07
754.6, 3.74e-07
754.8, 3.9e-07
755.0, 4.07e-07
755.2, 4.24e-07
755.4, 4.42e-07
755.6, 4.61e-07
755.8, 4.8e-07
756.0, 5.01e-07
756.2, 5.22e-07
756.4, 5.45e-07
756.6, 5.68e-07
756.8, 5.92e-07
757.0, 6.17e-07
757.2, 6.43e-07
757.4, 6.44e-07
757.6, 6.31e-07
757.8, 6.18e-07
758.0, 6.06e-07
758.2, 5.94e-07
758.4, 5.83e-07
758.6, 5.71e-07
758.8, 5.6e-07
759.0, 5.49e-07
759.2, 5.38e-07
759.4, 5.27e-07
759.6, 5.17e-07
759.8, 5.07e-07
760.0, 4.97e-07
760.2, 4.87e-07
760.4, 4.78e-07
760.6, 4.68e-07
760.8, 4.59e-07
761.0, 4.23e-07
761.2, 3.63e-07
761.4, 3.12e-07
761.6, 2.68e-07
761.8, 2.3e-07
762.0, 1.98e-07
762.2, 1.7e-07
762.4, 1.46e-07
762.6, 1.26e-07
762.8, 1.08e-07
763.0, 9.28e-08
763.2, 7.97e-08
763.4, 6.85e-08
763.6, 5.88e-08
763.8, 5.06e-08
764.0, 4.34e-08
764.2, 3.73e-08
764.4, 3.21e-08
764.6, 2.93e-08
764.8, 3.14e-08
765.0, 3.36e-08
765.2, 3.6e-08
765.4, 3.86e-08
765.6, 4.13e-08
765.8, 4.42e-08
766.0, 4.74e-08
766.2, 5.07e-08
766.4, 5.43e-08
766.6, 5.82e-08
766.8, 6.23e-08
767.0, 6.67e-08
767.2, 7.15e-08
767.4, 7.65e-08
767.6, 8.2e-08
767.8, 8.78e-08
768.0, 9.4e-08
768.2, 1.0e-07
768.4, 1.0e-07
768.6, 1.0e-07
768.8, 1.0e-07
769.0, 1.0e-07
769.2, 1.0e-07
769.4, 1.0e-07
769.6, 1.0e-07
769.8, 1.0e-07
770.0, 1.0e-07
770.2, 1.0e-07
770.4, 1.0e-07
770.6, 1.0e-07
770.8, 1.0e-07
771.0, 1.0e-07
771.2, 1.0e-07
771.4, 1.0e-07
771.6, 1.0e-07
771.8, 1.0e-07
772.0, 1.0e-07
772.2, 1.0e-07
772.4, 1.0e-07
772.6, 1.0e-07
772.8, 1.0e-07
773.0, 1.0e-07
773.2, 1.0e-07
773.4, 1.0e-07
773.6, 1.0e-07
773.8, 1.0e-07
774.0, 1.0e-07
774.2, 1.0e-07
774.4, 1.0e-07
774.6, 1.0e-07
774.8, 1.0e-07
775.0, 1.0e-07
775.2, 1.0e-07
775.4, 1.0e-07
775.6, 1.0e-07
775.8, 1.0e-07
776.0, 1.0e-07
776.2, 1.0e-07
776.4, 1.0e-07
776.6, 1.0e-07
776.8, 1.0e-07
777.0, 1.0e-07
777.2, 1.0e-07
777.4, 1.0e-07
777.6, 1.0e-07
777.8, 1.0e-07
778.0, 1.0e-07
778.2, 1.0e-07
778.4, 1.0e-07
778.6, 1.0e-07
778.8, 1.0e-07
779.0, 1.0e-07
779.2, 1.0e-07
779.4, 1.0e-07
779.6, 1.0e-07
779.8, 1.0e-07
780.0, 1.0e-07
780.2, 1.0e-07
780.4, 1.0e-07
780.6, 1.0e-07
780.8, 1.0e-07
781.0, 1.0e-07
781.2, 1.0e-07
781.4, 1.0e-07
781.6, 1.0e-07
781.8, 1.0e-07
782.0, 1.0e-07
782.2, 1.0e-07
782.4, 1.0e-07
782.6, 1.0e-07
782.8, 1.0e-07
783.0, 1.0e-07
783.2, 1.0e-07
783.4, 1.0e-07
783.6, 1.0e-07
783.8, 1.0e-07
784.0, 1.0e-07
784.2, 1.0e-07
784.4, 1.0e-07
784.6, 1.0e-07
784.8, 1.0e-07
785.0, 1.0e-07
785.2, 1.0e-07
785.4, 1.0e-07
785.6, 1.0e-07
785.8, 1.0e-07
786.0, 1.0e-07
786.2, 1.0e-07
786.4, 1.0e-07
786.6, 1.0e-07
786.8, 1.0e-07
787.0, 1.0e-07
787.2, 1.0e-07
787.4, 1.0e-07
787.6, 1.0e-07
787.8, 1.0e-07
788.0, 1.0e-07
788.2, 1.0e-07
788.4, 1.0e-07
788.6, 1.0e-07
788.8, 1.0e-07
789.0, 1.0e-07
789.2, 1.0e-07
789.4, 1.0e-07
789.6, 1.0e-07
789.8, 1.0e-07
790.0, 1.0e-07
790.2, 1.0e-07
790.4, 1.0e-07
790.6, 1.0e-07
790.8, 1.0e-07
791.0, 1.0e-07
791.2, 1.0e-07
791.4, 1.0e-07
791.6, 1.0e-07
791.8, 1.0e-07
792.0, 1.0e-07
792.2, 1.0e-07
792.4, 1.0e-07
792.6, 1.0e-07
792.8, 1.0e-07
793.0, 1.0e-07
793.2, 1.0e-07
793.4, 1.0e-07
793.6, 9.8e-08
793.8, 8.08e-08
794.0, 6.67e-08
794.2, 5.5e-08
794.4, 4.54e-08
794.6, 3.74e-08
794.8, 3.09e-08
795.0, 2.55e-08
795.2, 2.67e-08
795.4, 2.79e-08
795.6, 2.92e-08
795.8, 3.05e-08
796.0, 3.19e-08
796.2, 3.34e-08
796.4, 3.49e-08
796.6, 3.65e-08
796.8, 3.82e-08
797.0, 4.0e-08
797.2, 4.17e-08
797.4, 4.19e-08
797.6, 4.21e-08
797.8, 4.23e-08
798.0, 4.25e-08
798.2, 4.27e-08
798.4, 4.29e-08
798.6, 4.31e-08
798.8, 4.33e-08
799.0, 4.35e-08
799.2, 4.37e-08
799.4, 4.39e-08
799.6, 4.41e-08
799.8, 4.43e-08
800.0, 4.45e-08
800.2, 4.47e-08
800.4, 4.49e-08
800.6, 4.51e-08
800.8, 4.53e-08
801.0, 5.17e-08
801.2, 5.92e-08
801.4, 6.79e-08
801.6, 7.78e-08
801.8, 8.91e-08
802.0, 1.02e-07
802.2, 1.17e-07
802.4, 1.34e-07
802.6, 1.54e-07
802.8, 1.76e-07
803.0, 2.02e-07
803.2, 2.07e-07
803.4, 2.12e-07
803.6, 2.17e-07
803.8, 2.22e-07
804.0, 2.27e-07
804.2, 2.33e-07
804.4, 2.49e-07
804.6, 2.65e-07
804.8, 2.83e-07
805.0, 3.02e-07
805.2, 3.22e-07
805.4, 3.43e-07
805.6, 3.66e-07
805.8, 3.9e-07
806.0, 4.16e-07
806.2, 4.44e-07
806.4, 4.73e-07
806.6, 5.04e-07
806.8, 5.38e-07
807.0, 5.74e-07
807.2, 6.12e-07
807.4, 6.52e-07
807.6, 6.95e-07
807.8, 7.41e-07
808.0, 7.11e-07
808.2, 6.77e-07
808.4, 6.44e-07
808.6, 6.13e-07
808.8, 5.83e-07
809.0, 5.55e-07
809.2, 5.28e-07
809.4, 5.03e-07
809.6, 4.79e-07
809.8, 4.55e-07
810.0, 4.33e-07
810.2, 4.13e-07
810.4, 3.93e-07
810.6, 3.74e-07
810.8, 3.56e-07
811.0, 3.38e-07
811.2, 3.22e-07
811.4, 3.07e-07
811.6, 3.05e-07
811.8, 3.08e-07
812.0, 3.11e-07
812.2, 3.13e-07
812.4, 3.16e-07
812.6, 3.19e-07
812.8, 3.21e-07
813.0, 3.24e-07
813.2, 3.27e-07
813.4, 3.3e-07
813.6, 3.33e-07
813.8, 3.36e-07
814.0, 3.38e-07
814.2, 3.41e-07
814.4, 3.44e-07
814.6, 3.47e-07
814.8, 3.5e-07
815.0, 3.53e-07
815.2, 3.64e-07
815.4, 3.8e-07
815.6, 3.97e-07
815.8, 4.14e-07
816.0, 4.32e-07
816.2, 4.51e-07
816.4, 4.7e-07
816.6, 4.91e-07
816.8, 5.12e-07
817.0, 5.35e-07
817.2, 5.58e-07
817.4, 5.82e-07
817.6, 6.08e-07
817.8, 6.34e-07
818.0, 6.62e-07
818.2, 6.91e-07
818.4, 7.21e-07
818.6, 7.52e-07
818.8, 7.91e-07
819.0, 8.36e-07
819.2, 8.84e-07
819.4, 9.35e-07
819.6, 9.89e-07
819.8, 1.05e-06
820.0, 1.11e-06
820.2, 1.17e-06
820.4, 1.24e-06
820.6, 1.31e-06
820.8, 1.38e-06
821.0, 1.46e-06
821.2, 1.55e-06
821.4, 1.63e-06
821.6, 1.73e-06
821.8, 1.83e-06
822.0, 1.93e-06
822.2, 2.04e-06
822.4, 2.12e-06
822.6, 2.12e-06
822.8, 2.12e-06
823.0, 2.12e-06
823.2, 2.12e-06
823.4, 2.12e-06
823.6, 2.12e-06
823.8, 2.12e-06
824.0, 2.12e-06
824.2, 2.12e-06
824.4, 2.12e-06
824.6, 2.12e-06
824.8, 2.12e-06
825.0, 2.12e-06
825.2, 2.13e-06
825.4, 2.13e-06
825.6, 2.13e-06
825.8, 2.13e-06
826.0, 2.09e-06
826.2, 1.94e-06
826.4, 1.8e-06
826.6, 1.67e-06
826.8, 1.55e-06
827.0, 1.44e-06
827.2, 1.34e-06
827.4, 1.25e-06
827.6, 1.16e-06
827.8, 1.08e-06
828.0, 1.0e-06
828.2, 9.3e-07
828.4, 8.64e-07
828.6, 8.03e-07
828.8, 7.46e-07
829.0, 6.93e-07
829.2, 6.44e-07
829.4, 5.99e-07
829.6, 5.56e-07
829.8, 5.19e-07
830.0, 4.84e-07
830.2, 4.51e-07
830.4, 4.21e-07
830.6, 3.92e-07
830.8, 3.66e-07
831.0, 3.41e-07
831.2, 3.18e-07
831.4, 2.96e-07
831.6, 2.76e-07
831.8, 2.58e-07
832.0, 2.4e-07
832.2, 2.24e-07
832.4, 2.09e-07
832.6, 1.95e-07
832.8, 1.81e-07
833.0, 1.69e-07
833.2, 1.58e-07
833.4, 1.54e-07
833.6, 1.51e-07
833.8, 1.47e-07
834.0, 1.43e-07
834.2, 1.4e-07
834.4, 1.37e-07
834.6, 1.33e-07
834.8, 1.3e-07
835.0, 1.27e-07
835.2, 1.24e-07
835.4, 1.21e-07
835.6, 1.18e-07
835.8, 1.15e-07
836.0, 1.12e-07
836.2, 1.09e-07
836.4, 1.07e-07
836.6, 1.04e-07
836.8, 1.02e-07
837.0, 9.87e-08
837.2, 9.59e-08
837.4, 9.32e-08
837.6, 9.05e-08
837.8, 8.79e-08
838.0, 8.54e-08
838.2, 8.3e-08
838.4, 8.06e-08
838.6, 7.83e-08
838.8, 7.61e-08
839.0, 7.4e-08
839.2, 7.19e-08
839.4, 6.98e-08
839.6, 6.78e-08
839.8, 6.59e-08
840.0, 6.4e-08
840.2, 6.22e-08
840.4, 6.04e-08
840.6, 5.95e-08
840.8, 5.87e-08
841.0, 5.79e-08
841.2, 5.71e-08
841.4, 5.63e-08
841.6, 5.56e-08
841.8, 5.48e-08
842.0, 5.41e-08
842.2, 5.33e-08
842.4, 5.26e-08
842.6, 5.19e-08
842.8, 5.12e-08
843.0, 5.05e-08
843.2, 4.98e-08
843.4, 4.91e-08
843.6, 4.84e-08
843.8, 4.78e-08
844.0, 4.71e-08
844.2, 4.96e-08
844.4, 5.28e-08
844.6, 5.63e-08
844.8, 6.0e-08
845.0, 6.39e-08
845.2, 6.81e-08
845.4, 7.25e-08
845.6, 7.73e-08
845.8, 8.23e-08
846.0, 8.77e-08
846.2, 9.34e-08
846.4, 9.95e-08
846.6, 1.06e-07
846.8, 1.13e-07
847.0, 1.2e-07
847.2, 1.28e-07
847.4, 1.37e-07
847.6, 1.46e-07
847.8, 1.53e-07
848.0, 1.59e-07
848.2, 1.66e-07
848.4, 1.74e-07
848.6, 1.81e-07
848.8, 1.89e-07
849.0, 1.98e-07
849.2, 2.06e-07
849.4, 2.15e-07
849.6, 2.25e-07
849.8, 2.35e-07
850.0, 2.45e-07
850.2, 2.56e-07
850.4, 2.67e-07
850.6, 2.79e-07
850.8, 2.91e-07
851.0, 3.04e-07
851.2, 3.18e-07
851.4, 3.36e-07
851.6, 3.56e-07
851.8, 3.77e-07
852.0, 4.0e-07
852.2, 4.24e-07
852.4, 4.5e-07
852.6, 4.77e-07
852.8, 5.05e-07
853.0, 5.36e-07
853.2, 5.68e-07
853.4, 6.02e-07
853.6, 6.38e-07
853.8, 6.77e-07
854.0, 7.18e-07
854.2, 7.61e-07
854.4, 8.07e-07
854.6, 8.55e-07
854.8, 9.07e-07
855.0, 9.39e-07
855.2, 9.64e-07
855.4, 9.9e-07
855.6, 1.02e-06
855.8, 1.04e-06
856.0, 1.07e-06
856.2, 1.1e-06
856.4, 1.13e-06
856.6, 1.16e-06
856.8, 1.19e-06
857.0, 1.22e-06
857.2, 1.25e-06
857.4, 1.29e-06
857.6, 1.32e-06
857.8, 1.36e-06
858.0, 1.39e-06
858.2, 1.43e-06
858.4, 1.47e-06
858.6, 1.48e-06
858.8, 1.47e-06
859.0, 1.46e-06
859.2, 1.46e-06
859.4, 1.45e-06
859.6, 1.45e-06
859.8, 1.44e-06
860.0, 1.44e-06
860.2, 1.43e-06
860.4, 1.43e-06
860.6, 1.42e-06
860.8, 1.41e-06
861.0, 1.41e-06
861.2, 1.4e-06
861.4, 1.4e-06
861.6, 1.39e-06
861.8, 1.39e-06
862.0, 1.38e-06
862.2, 1.38e-06
862.4, 1.37e-06
862.6, 1.37e-06
862.8, 1.36e-06
863.0, 1.36e-06
863.2, 1.35e-06
863.4, 1.35e-06
863.6, 1.34e-06
863.8, 1.33e-06
864.0, 1.33e-06
864.2, 1.32e-06
864.4, 1.32e-06
864.6, 1.31e-06
864.8, 1.31e-06
865.0, 1.3e-06
865.2, 1.3e-06
865.4, 1.29e-06
865.6, 1.29e-06
865.8, 1.29e-06
866.0, 1.29e-06
866.2, 1.29e-06
866.4, 1.3e-06
866.6, 1.3e-06
866.8, 1.3e-06
867.0, 1.31e-06
867.2, 1.31e-06
867.4, 1.31e-06
867.6, 1.32e-06
867.8, 1.32e-06
868.0, 1.32e-06
868.2, 1.33e-06
868.4, 1.35e-06
868.6, 1.36e-06
868.8, 1.37e-06
869.0, 1.39e-06
869.2, 1.4e-06
869.4, 1.41e-06
869.6, 1.43e-06
869.8, 1.44e-06
870.0, 1.46e-06
870.2, 1.47e-06
870.4, 1.49e-06
870.6, 1.5e-06
870.8, 1.52e-06
871.0, 1.53e-06
871.2, 1.55e-06
871.4, 1.57e-06
871.6, 1.58e-06
871.8, 1.6e-06
872.0, 1.61e-06
872.2, 1.63e-06
872.4, 1.65e-06
872.6, 1.67e-06
872.8, 1.68e-06
873.0, 1.71e-06
873.2, 1.74e-06
873.4, 1.77e-06
873.6, 1.81e-06
873.8, 1.85e-06
874.0, 1.88e-06
874.2, 1.92e-06
874.4, 1.96e-06
874.6, 2.0e-06
874.8, 2.04e-06
875.0, 2.08e-06
875.2, 2.12e-06
875.4, 2.17e-06
875.6, 2.21e-06
875.8, 2.25e-06
876.0, 2.3e-06
876.2, 2.35e-06
876.4, 2.39e-06
876.6, 2.44e-06
876.8, 2.51e-06
877.0, 2.57e-06
877.2, 2.64e-06
877.4, 2.71e-06
877.6, 2.78e-06
877.8, 2.85e-06
878.0, 2.93e-06
878.2, 3.0e-06
878.4, 3.08e-06
878.6, 3.16e-06
878.8, 3.25e-06
879.0, 3.33e-06
879.2, 3.42e-06
879.4, 3.51e-06
879.6, 3.6e-06
879.8, 3.69e-06
880.0, 3.79e-06
880.2, 3.89e-06
880.4, 3.99e-06
880.6, 4.1e-06
880.8, 4.21e-06
881.0, 4.32e-06
881.2, 4.43e-06
881.4, 4.55e-06
881.6, 4.67e-06
881.8, 4.8e-06
882.0, 4.93e-06
882.2, 5.06e-06
882.4, 5.19e-06
882.6, 5.33e-06
882.8, 5.47e-06
883.0, 5.62e-06
883.2, 5.77e-06
883.4, 5.92e-06
883.6, 6.08e-06
883.8, 6.23e-06
884.0, 6.33e-06
884.2, 6.43e-06
884.4, 6.53e-06
884.6, 6.63e-06
884.8, 6.73e-06
885.0, 6.84e-06
885.2, 6.94e-06
885.4, 7.05e-06
885.6, 7.16e-06
885.8, 7.28e-06
886.0, 7.39e-06
886.2, 7.5e-06
886.4, 7.62e-06
886.6, 7.74e-06
886.8, 7.86e-06
887.0, 7.98e-06
887.2, 8.11e-06
887.4, 8.22e-06
887.6, 8.19e-06
887.8, 8.16e-06
888.0, 8.14e-06
888.2, 8.11e-06
888.4, 8.08e-06
888.6, 8.06e-06
888.8, 8.03e-06
889.0, 8.0e-06
889.2, 7.98e-06
889.4, 7.95e-06
889.6, 7.92e-06
889.8, 7.9e-06
890.0, 7.87e-06
890.2, 7.84e-06
890.4, 7.82e-06
890.6, 7.79e-06
890.8, 7.76e-06
891.0, 7.73e-06
891.2, 7.6e-06
891.4, 7.47e-06
891.6, 7.35e-06
891.8, 7.22e-06
892.0, 7.1e-06
892.2, 6.98e-06
892.4, 6.87e-06
892.6, 6.75e-06
892.8, 6.64e-06
893.0, 6.53e-06
893.2, 6.42e-06
893.4, 6.31e-06
893.6, 6.2e-06
893.8, 6.1e-06
894.0, 6.0e-06
894.2, 5.9e-06
894.4, 5.8e-06
894.6, 5.7e-06
894.8, 5.59e-06
895.0, 5.49e-06
895.2, 5.39e-06
895.4, 5.29e-06
895.6, 5.19e-06
895.8, 5.1e-06
896.0, 5.01e-06
896.2, 4.91e-06
896.4, 4.82e-06
896.6, 4.73e-06
896.8, 4.65e-06
897.0, 4.56e-06
897.2, 4.48e-06
897.4, 4.4e-06
897.6, 4.32e-06
897.8, 4.24e-06
898.0, 4.16e-06
898.2, 4.08e-06
898.4, 4.04e-06
898.6, 3.99e-06
898.8, 3.94e-06
899.0, 3.9e-06
899.2, 3.85e-06
899.4, 3.81e-06
899.6, 3.77e-06
899.8, 3.72e-06
900.0, 3.68e-06
900.2, 3.64e-06
900.4, 3.59e-06
900.6, 3.55e-06
900.8, 3.51e-06
901.0, 3.47e-06
901.2, 3.43e-06
901.4, 3.39e-06
901.6, 3.35e-06
901.8, 3.32e-06
902.0, 3.29e-06
902.2, 3.26e-06
902.4, 3.23e-06
902.6, 3.2e-06
902.8, 3.17e-06
903.0, 3.14e-06
903.2, 3.12e-06
903.4, 3.09e-06
903.6, 3.06e-06
903.8, 3.04e-06
904.0, 3.01e-06
904.2, 2.98e-06
904.4, 2.96e-06
904.6, 2.93e-06
904.8, 2.9e-06
905.0, 2.88e-06
905.2, 2.85e-06
905.4, 2.83e-06
905.6, 2.82e-06
905.8, 2.81e-06
906.0, 2.8e-06
906.2, 2.79e-06
906.4, 2.78e-06
906.6, 2.78e-06
906.8, 2.77e-06
907.0, 2.76e-06
907.2, 2.75e-06
907.4, 2.74e-06
907.6, 2.73e-06
907.8, 2.72e-06
908.0, 2.71e-06
908.2, 2.71e-06
908.4, 2.7e-06
908.6, 2.69e-06
908.8, 2.68e-06
909.0, 2.67e-06
909.2, 2.68e-06
909.4, 2.69e-06
909.6, 2.7e-06
909.8, 2.71e-06
910.0, 2.71e-06
910.2, 2.72e-06
910.4, 2.73e-06
910.6, 2.74e-06
910.8, 2.75e-06
911.0, 2.76e-06
911.2, 2.77e-06
911.4, 2.78e-06
911.6, 2.78e-06
911.8, 2.79e-06
912.0, 2.8e-06
912.2, 2.81e-06
912.4, 2.82e-06
912.6, 2.83e-06
912.8, 2.84e-06
913.0, 2.86e-06
913.2, 2.87e-06
913.4, 2.88e-06
913.6, 2.9e-06
913.8, 2.91e-06
914.0, 2.93e-06
914.2, 2.94e-06
914.4, 2.95e-06
914.6, 2.97e-06
914.8, 2.98e-06
915.0, 3.0e-06
915.2, 3.01e-06
915.4, 3.02e-06
915.6, 3.04e-06
915.8, 3.05e-06
916.0, 3.07e-06
916.2, 3.08e-06
916.4, 3.11e-06
916.6, 3.13e-06
916.8, 3.16e-06
917.0, 3.18e-06
917.2, 3.21e-06
917.4, 3.23e-06
917.6, 3.26e-06
917.8, 3.29e-06
918.0, 3.31e-06
918.2, 3.34e-06
918.4, 3.36e-06
918.6, 3.39e-06
918.8, 3.42e-06
919.0, 3.44e-06
919.2, 3.47e-06
919.4, 3.5e-06
919.6, 3.53e-06
919.8, 3.56e-06
920.0, 3.58e-06
920.2, 3.6e-06
920.4, 3.63e-06
920.6, 3.65e-06
920.8, 3.68e-06
921.0, 3.71e-06
921.2, 3.73e-06
921.4, 3.76e-06
921.6, 3.78e-06
921.8, 3.81e-06
922.0, 3.84e-06
922.2, 3.86e-06
922.4, 3.89e-06
922.6, 3.92e-06
922.8, 3.94e-06
923.0, 3.97e-06
923.2, 4.0e-06
923.4, 4.02e-06
923.6, 4.05e-06
923.8, 4.08e-06
924.0, 4.11e-06
924.2, 4.14e-06
924.4, 4.16e-06
924.6, 4.19e-06
924.8, 4.22e-06
925.0, 4.25e-06
925.2, 4.28e-06
925.4, 4.31e-06
925.6, 4.34e-06
925.8, 4.37e-06
926.0, 4.4e-06
926.2, 4.43e-06
926.4, 4.46e-06
926.6, 4.49e-06
926.8, 4.52e-06
927.0, 4.55e-06
927.2, 4.56e-06
927.4, 4.58e-06
927.6, 4.59e-06
927.8, 4.61e-06
928.0, 4.62e-06
928.2, 4.64e-06
928.4, 4.65e-06
928.6, 4.67e-06
928.8, 4.69e-06
929.0, 4.7e-06
929.2, 4.72e-06
929.4, 4.73e-06
929.6, 4.75e-06
929.8, 4.77e-06
930.0, 4.78e-06
930.2, 4.8e-06
930.4, 4.81e-06
930.6, 4.81e-06
930.8, 4.79e-06
931.0, 4.76e-06
931.2, 4.73e-06
931.4, 4.71e-06
931.6, 4.68e-06
931.8, 4.65e-06
932.0, 4.63e-06
932.2, 4.91e-06
932.4, 4.23e-06
932.6, 5.11e-06
932.8, 4.51e-06
933.0, 4.19e-06
933.2, 4.84e-06
933.4, 4.77e-06
933.6, 5.18e-06
933.8, 4.59e-06
934.0, 4.84e-06
934.2, 4.74e-06
934.4, 4.95e-06
934.6, 4.72e-06
934.8, 4.54e-06
935.0, 4.97e-06
935.2, 4.66e-06
935.4, 5.33e-06
935.6, 4.75e-06
935.8, 5.06e-06
936.0, 5.21e-06
936.2, 4.78e-06
936.4, 5.1e-06
936.6, 6.19e-06
936.8, 5.23e-06
937.0, 6.41e-06
937.2, 6.13e-06
937.4, 5.38e-06
937.6, 5.61e-06
937.8, 5.84e-06
938.0, 6.24e-06
938.2, 5.92e-06
938.4, 5.79e-06
938.6, 5.61e-06
938.8, 6.53e-06
939.0, 6.32e-06
939.2, 5.84e-06
939.4, 6.17e-06
939.6, 6.36e-06
939.8, 7.48e-06
940.0, 6.64e-06
940.2, 6.92e-06
940.4, 7.12e-06
940.6, 7.57e-06
940.8, 8.08e-06
941.0, 7.16e-06
941.2, 7.68e-06
941.4, 7.76e-06
941.6, 9.06e-06
941.8, 8.86e-06
942.0, 8.15e-06
942.2, 8.57e-06
942.4, 9.24e-06
942.6, 8.98e-06
942.8, 8.78e-06
943.0, 9.19e-06
943.2, 8.2e-06
943.4, 9.54e-06
943.6, 8.71e-06
943.8, 1.01e-05
944.0, 9.7e-06
944.2, 8.11e-06
944.4, 9.02e-06
944.6, 8.64e-06
944.8, 1.02e-05
945.0, 1.2e-05
945.2, 1.03e-05
945.4, 1.13e-05
945.6, 1.0e-05
945.8, 1.05e-05
946.0, 1.09e-05
946.2, 1.12e-05
946.4, 1.12e-05
946.6, 1.15e-05
946.8, 1.18e-05
947.0, 1.23e-05
947.2, 1.19e-05
947.4, 1.36e-05
947.6, 1.3e-05
947.8, 1.39e-05
948.0, 1.31e-05
948.2, 1.2e-05
948.4, 1.39e-05
948.6, 1.34e-05
948.8, 1.55e-05
949.0, 1.3e-05
949.2, 1.54e-05
949.4, 1.64e-05
949.6, 1.49e-05
949.8, 1.51e-05
950.0, 1.56e-05
950.2, 1.58e-05
950.4, 1.61e-05
950.6, 1.59e-05
950.8, 1.65e-05
951.0, 1.69e-05
951.2, 1.74e-05
951.4, 1.75e-05
951.6, 1.84e-05
951.8, 1.93e-05
952.0, 2.04e-05
952.2, 1.97e-05
952.4, 1.92e-05
952.6, 2.08e-05
952.8, 2.06e-05
953.0, 2.21e-05
953.2, 2.17e-05
953.4, 2.38e-05
953.6, 2.28e-05
953.8, 2.21e-05
954.0, 2.36e-05
954.2, 2.42e-05
954.4, 2.44e-05
954.6, 2.44e-05
954.8, 2.63e-05
955.0, 2.61e-05
955.2, 2.82e-05
955.4, 2.7e-05
955.6, 2.87e-05
955.8, 3.02e-05
956.0, 2.96e-05
956.2, 3.2e-05
956.4, 3.35e-05
956.6, 3.67e-05
956.8, 3.52e-05
957.0, 3.85e-05
957.2, 3.84e-05
957.4, 4.09e-05
957.6, 4.07e-05
957.8, 4.07e-05
958.0, 4.56e-05
958.2, 4.81e-05
958.4, 5.05e-05
958.6, 4.96e-05
958.8, 5.26e-05
959.0, 5.56e-05
959.2, 5.81e-05
959.4, 6.05e-05
959.6, 6.16e-05
959.8, 6.58e-05
960.0, 6.62e-05
960.2, 7.05e-05
960.4, 7.34e-05
960.6, 7.71e-05
960.8, 8.29e-05
961.0, 8.47e-05
961.2, 8.76e-05
961.4, 9.01e-05
961.6, 9.81e-05
961.8, 1.02e-04
962.0, 1.04e-04
962.2, 1.1e-04
962.4, 1.15e-04
962.6, 1.24e-04
962.8, 1.28e-04
963.0, 1.35e-04
963.2, 1.42e-04
963.4, 1.51e-04
963.6, 1.63e-04
963.8, 1.71e-04
964.0, 1.74e-04
964.2, 1.89e-04
964.4, 1.99e-04
964.6, 2.13e-04
964.8, 2.25e-04
965.0, 2.4e-04
965.2, 2.53e-04
965.4, 2.7e-04
965.6, 2.91e-04
965.8, 3.08e-04
966.0, 3.23e-04
966.2, 3.45e-04
966.4, 3.73e-04
966.6, 3.97e-04
966.8, 4.31e-04
967.0, 4.63e-04
967.2, 4.96e-04
967.4, 5.3e-04
967.6, 5.69e-04
967.8, 6.16e-04
968.0, 6.58e-04
968.2, 7.13e-04
968.4, 7.65e-04
968.6, 8.35e-04
968.8, 8.91e-04
969.0, 9.68e-04
969.2, 0.00106
969.4, 0.00114
969.6, 0.00125
969.8, 0.00134
970.0, 0.00145
970.2, 0.00158
970.4, 0.00171
970.6, 0.00188
970.8, 0.00202
971.0, 0.00221
971.2, 0.00237
971.4, 0.00257
971.6, 0.0028
971.8, 0.00303
972.0, 0.00323
972.2, 0.00347
972.4, 0.00372
972.6, 0.00398
972.8, 0.00432
973.0, 0.00457
973.2, 0.00483
973.4, 0.00512
973.6, 0.00545
973.8, 0.00567
974.0, 0.00593
974.2, 0.00621
974.4, 0.00638
974.6, 0.00656
974.8, 0.00674
975.0, 0.00692
975.2, 0.00698
975.4, 0.00708
975.6, 0.00716
975.8, 0.00716
976.0, 0.0072
976.2, 0.00721
976.4, 0.00723
976.6, 0.00717
976.8, 0.00712
977.0, 0.00709
977.2, 0.00701
977.4, 0.00695
977.6, 0.00688
977.8, 0.00685
978.0, 0.00672
978.2, 0.00665
978.4, 0.00663
978.6, 0.00656
978.8, 0.00648
979.0, 0.00642
979.2, 0.00637
979.4, 0.00626
979.6, 0.00623
979.8, 0.00619
980.0, 0.00612
980.2, 0.00605
980.4, 0.00601
980.6, 0.00599
980.8, 0.00591
981.0, 0.00588
981.2, 0.00584
981.4, 0.0058
981.6, 0.00576
981.8, 0.0057
982.0, 0.00571
982.2, 0.00563
982.4, 0.00559
982.6, 0.00556
982.8, 0.0055
983.0, 0.00547
983.2, 0.00544
983.4, 0.00541
983.6, 0.00537
983.8, 0.00531
984.0, 0.00527
984.2, 0.00526
984.4, 0.00519
984.6, 0.00517
984.8, 0.0051
985.0, 0.00506
985.2, 0.00504
985.4, 0.00497
985.6, 0.00494
985.8, 0.00489
986.0, 0.00484
986.2, 0.00481
986.4, 0.00476
986.6, 0.00472
986.8, 0.00465
987.0, 0.0046
987.2, 0.00454
987.4, 0.00452
987.6, 0.00446
987.8, 0.00442
988.0, 0.00437
988.2, 0.00434
988.4, 0.00426
988.6, 0.00422
988.8, 0.00419
989.0, 0.00414
989.2, 0.00409
989.4, 0.00406
989.6, 0.00404
989.8, 0.00398
990.0, 0.00394
990.2, 0.0039
990.4, 0.00387
990.6, 0.00383
990.8, 0.00381
991.0, 0.00377
991.2, 0.00372
991.4, 0.00373
991.6, 0.00369
991.8, 0.00363
992.0, 0.00363
992.2, 0.00362
992.4, 0.00359
992.6, 0.00358
992.8, 0.00355
993.0, 0.00356
993.2, 0.00352
993.4, 0.00352
993.6, 0.00351
993.8, 0.00349
994.0, 0.00348
994.2, 0.00348
994.4, 0.00348
994.6, 0.00347
994.8, 0.00346
995.0, 0.00348
995.2, 0.00346
995.4, 0.00348
995.6, 0.00349
995.8, 0.00348
996.0, 0.0035
996.2, 0.00352
996.4, 0.00354
996.6, 0.00356
996.8, 0.00358
997.0, 0.00359
997.2, 0.00362
997.4, 0.00362
997.6, 0.00366
997.8, 0.00367
998.0, 0.0037
998.2, 0.00375
998.4, 0.00378
998.6, 0.00381
998.8, 0.00385
999.0, 0.00388
999.2, 0.00394
999.4, 0.00398
999.6, 0.00401
999.8, 0.00409
1000.0, 0.00411
1000.2, 0.00413
1000.4, 0.00422
1000.6, 0.00425
1000.8, 0.00433
1001.0, 0.00441
1001.2, 0.00447
1001.4, 0.00455
1001.6, 0.00465
1001.8, 0.00469
1002.0, 0.00477
1002.2, 0.00486
1002.4, 0.00494
1002.6, 0.00501
1002.8, 0.00505
1003.0, 0.00522
1003.2, 0.00531
1003.4, 0.00538
1003.6, 0.00545
1003.8, 0.00559
1004.0, 0.00569
1004.2, 0.00584
1004.4, 0.00583
1004.6, 0.00595
1004.8, 0.0061
1005.0, 0.00622
1005.2, 0.00624
1005.4, 0.00637
1005.6, 0.00648
1005.8, 0.00656
1006.0, 0.0067
1006.2, 0.00678
1006.4, 0.00686
1006.6, 0.0069
1006.8, 0.00707
1007.0, 0.00705
1007.2, 0.00729
1007.4, 0.0072
1007.6, 0.00727
1007.8, 0.00725
1008.0, 0.00754
1008.2, 0.00737
1008.4, 0.00743
1008.6, 0.00743
1008.8, 0.00753
1009.0, 0.00742
1009.2, 0.00752
1009.4, 0.00734
1009.6, 0.0074
1009.8, 0.00742
1010.0, 0.00734
1010.2, 0.00738
1010.4, 0.00728
1010.6, 0.0072
1010.8, 0.00708
1011.0, 0.00719
1011.2, 0.00697
1011.4, 0.00692
1011.6, 0.00679
1011.8, 0.00683
1012.0, 0.00662
1012.2, 0.00667
1012.4, 0.00644
1012.6, 0.00641
1012.8, 0.00622
1013.0, 0.0063
1013.2, 0.00609
1013.4, 0.00612
1013.6, 0.00585
1013.8, 0.00586
1014.0, 0.0057
1014.2, 0.00573
1014.4, 0.00551
1014.6, 0.00554
1014.8, 0.00534
1015.0, 0.00527
1015.2, 0.00514
1015.4, 0.00524
1015.6, 0.00502
1015.8, 0.005
1016.0, 0.00484
1016.2, 0.00485
1016.4, 0.0047
1016.6, 0.00473
1016.8, 0.00458
1017.0, 0.00456
1017.2, 0.00447
1017.4, 0.00447
1017.6, 0.0044
1017.8, 0.00438
1018.0, 0.00427
1018.2, 0.00428
1018.4, 0.00417
1018.6, 0.00415
1018.8, 0.00409
1019.0, 0.00413
1019.2, 0.00399
1019.4, 0.00403
1019.6, 0.00395
1019.8, 0.00391
1020.0, 0.00388
1020.2, 0.00396
1020.4, 0.00383
1020.6, 0.00384
1020.8, 0.0038
1021.0, 0.00384
1021.2, 0.00376
1021.4, 0.00382
1021.6, 0.00373
1021.8, 0.00376
1022.0, 0.00372
1022.2, 0.00374
1022.4, 0.00368
1022.6, 0.00378
1022.8, 0.00364
1023.0, 0.00372
1023.2, 0.00366
1023.4, 0.00368
1023.6, 0.00369
1023.8, 0.00373
1024.0, 0.00371
1024.2, 0.00371
1024.4, 0.00372
1024.6, 0.0037
1024.8, 0.00375
1025.0, 0.00373
1025.2, 0.00366
1025.4, 0.00379
1025.6, 0.00374
1025.8, 0.00375
1026.0, 0.00374
1026.2, 0.00379
1026.4, 0.00381
1026.6, 0.00389
1026.8, 0.00384
1027.0, 0.0039
1027.2, 0.00389
1027.4, 0.00396
1027.6, 0.00397
1027.8, 0.00403
1028.0, 0.00406
1028.2, 0.00413
1028.4, 0.00409
1028.6, 0.00416
1028.8, 0.00419
1029.0, 0.00424
1029.2, 0.00428
1029.4, 0.0044
1029.6, 0.00437
1029.8, 0.00444
1030.0, 0.00447
1030.2, 0.00452
1030.4, 0.0046
1030.6, 0.00471
1030.8, 0.00472
1031.0, 0.00478
1031.2, 0.00484
1031.4, 0.00488
1031.6, 0.00496
1031.8, 0.00507
1032.0, 0.0051
1032.2, 0.00518
1032.4, 0.00521
1032.6, 0.0053
1032.8, 0.00534
1033.0, 0.00545
1033.2, 0.00556
1033.4, 0.00564
1033.6, 0.00565
1033.8, 0.00576
1034.0, 0.00582
1034.2, 0.00587
1034.4, 0.006
1034.6, 0.00614
1034.8, 0.00616
1035.0, 0.00629
1035.2, 0.00631
1035.4, 0.00638
1035.6, 0.0065
1035.8, 0.00658
1036.0, 0.00671
1036.2, 0.00684
1036.4, 0.00685
1036.6, 0.00696
1036.8, 0.007
1037.0, 0.0071
1037.2, 0.00711
1037.4, 0.0073
1037.6, 0.00733
1037.8, 0.00749
1038.0, 0.00746
1038.2, 0.00758
1038.4, 0.00752
1038.6, 0.00771
1038.8, 0.00773
1039.0, 0.00788
1039.2, 0.00785
1039.4, 0.00812
1039.6, 0.0079
1039.8, 0.00811
1040.0, 0.00805
1040.2, 0.00814
1040.4, 0.00821
1040.6, 0.00842
1040.8, 0.00821
1041.0, 0.00851
1041.2, 0.00835
1041.4, 0.00839
1041.6, 0.00843
1041.8, 0.00845
1042.0, 0.00844
1042.2, 0.00862
1042.4, 0.00852
1042.6, 0.00862
1042.8, 0.00861
1043.0, 0.00857
1043.2, 0.0086
1043.4, 0.00862
1043.6, 0.00848
1043.8, 0.00863
1044.0, 0.00866
1044.2, 0.00862
1044.4, 0.00875
1044.6, 0.00856
1044.8, 0.00868
1045.0, 0.00869
1045.2, 0.00908
1045.4, 0.00904
1045.6, 0.00909
1045.8, 0.00892
1046.0, 0.009
1046.2, 0.00893
1046.4, 0.00905
1046.6, 0.00893
1046.8, 0.00901
1047.0, 0.00895
1047.2, 0.00899
1047.4, 0.00887
1047.6, 0.0089
1047.8, 0.00891
1048.0, 0.00893
1048.2, 0.00896
1048.4, 0.00882
1048.6, 0.00888
1048.8, 0.0089
1049.0, 0.00888
1049.2, 0.00877
1049.4, 0.00885
1049.6, 0.00888
1049.8, 0.00896
1050.0, 0.00884
1050.2, 0.00894
1050.4, 0.0088
1050.6, 0.00883
1050.8, 0.00879
1051.0, 0.00887
1051.2, 0.00886
1051.4, 0.00895
1051.6, 0.00884
1051.8, 0.00891
1052.0, 0.00886
1052.2, 0.00887
1052.4, 0.00893
1052.6, 0.00889
1052.8, 0.00892
1053.0, 0.00894
1053.2, 0.00891
1053.4, 0.0089
1053.6, 0.00895
1053.8, 0.00895
1054.0, 0.00901
1054.2, 0.00894
1054.4, 0.00906
1054.6, 0.00897
1054.8, 0.00903
1055.0, 0.00898
1055.2, 0.00905
1055.4, 0.00907
1055.6, 0.00909
1055.8, 0.00906
1056.0, 0.00909
1056.2, 0.00915
1056.4, 0.00912
1056.6, 0.00915
1056.8, 0.00914
1057.0, 0.0092
1057.2, 0.00921
1057.4, 0.00917
1057.6, 0.00919
1057.8, 0.00916
1058.0, 0.00912
1058.2, 0.00921
1058.4, 0.00916
1058.6, 0.00925
1058.8, 0.00917
1059.0, 0.00917
1059.2, 0.00914
1059.4, 0.00916
1059.6, 0.00919
1059.8, 0.0092
1060.0, 0.00912
1060.2, 0.0092
1060.4, 0.0091
1060.6, 0.00909
1060.8, 0.00909
1061.0, 0.00897
1061.2, 0.00895
1061.4, 0.00895
1061.6, 0.00889
1061.8, 0.00887
1062.0, 0.00883
1062.2, 0.00885
1062.4, 0.00883
1062.6, 0.00872
1062.8, 0.00864
1063.0, 0.00863
1063.2, 0.00858
1063.4, 0.00852
1063.6, 0.00848
1063.8, 0.00847
1064.0, 0.0084
1064.2, 0.00832
1064.4, 0.00824
1064.6, 0.00817
1064.8, 0.00814
1065.0, 0.00869
1065.2, 0.00929
1065.4, 0.00923
1065.6, 0.00916
1065.8, 0.00909
1066.0, 0.00899
1066.2, 0.00888
1066.4, 0.00881
1066.6, 0.00874
1066.8, 0.00866
1067.0, 0.00857
1067.2, 0.00848
1067.4, 0.00839
1067.6, 0.00833
1067.8, 0.00828
1068.0, 0.00819
1068.2, 0.00808
1068.4, 0.00797
1068.6, 0.00786
1068.8, 0.00778
1069.0, 0.00773
1069.2, 0.00766
1069.4, 0.00758
1069.6, 0.00751
1069.8, 0.00742
1070.0, 0.00735
1070.2, 0.00728
1070.4, 0.0072
1070.6, 0.00711
1070.8, 0.00704
1071.0, 0.00701
1071.2, 0.00694
1071.4, 0.00684
1071.6, 0.00676
1071.8, 0.00671
1072.0, 0.00666
1072.2, 0.0066
1072.4, 0.00653
1072.6, 0.00645
1072.8, 0.00638
1073.0, 0.00631
1073.2, 0.00625
1073.4, 0.00622
1073.6, 0.00617
1073.8, 0.00612
1074.0, 0.00606
1074.2, 0.00602
1074.4, 0.00598
1074.6, 0.00594
1074.8, 0.00582
1075.0, 0.00542
1075.2, 0.00518
1075.4, 0.00515
1075.6, 0.00512
1075.8, 0.00508
1076.0, 0.00505
1076.2, 0.00501
1076.4, 0.00498
1076.6, 0.00494
1076.8, 0.00492
1077.0, 0.0049
1077.2, 0.00488
1077.4, 0.00486
1077.6, 0.00484
1077.8, 0.00482
1078.0, 0.0048
1078.2, 0.00478
1078.4, 0.00476
1078.6, 0.00474
1078.8, 0.00472
1079.0, 0.00469
1079.2, 0.00467
1079.4, 0.00464
1079.6, 0.00463
1079.8, 0.00463
1080.0, 0.00464
1080.2, 0.00464
1080.4, 0.00463
1080.6, 0.00461
1080.8, 0.0046
1081.0, 0.00458
1081.2, 0.00458
1081.4, 0.00458
1081.6, 0.00458
1081.8, 0.00457
1082.0, 0.00456
1082.2, 0.00455
1082.4, 0.00454
1082.6, 0.00455
1082.8, 0.00456
1083.0, 0.00458
1083.2, 0.00459
1083.4, 0.00459
1083.6, 0.00459
1083.8, 0.0046
1084.0, 0.0046
1084.2, 0.00459
1084.4, 0.00459
1084.6, 0.00459
1084.8, 0.00458
1085.0, 0.00461
1085.2, 0.00463
1085.4, 0.00466
1085.6, 0.00468
1085.8, 0.00471
1086.0, 0.00474
1086.2, 0.00476
1086.4, 0.00478
1086.6, 0.00481
1086.8, 0.00483
1087.0, 0.00486
1087.2, 0.00488
1087.4, 0.00491
1087.6, 0.00493
1087.8, 0.00496
1088.0, 0.00498
1088.2, 0.005
1088.4, 0.00503
1088.6, 0.00506
1088.8, 0.00509
1089.0, 0.00512
1089.2, 0.00515
1089.4, 0.00518
1089.6, 0.00522
1089.8, 0.00526
1090.0, 0.0053
1090.2, 0.00534
1090.4, 0.00538
1090.6, 0.00543
1090.8, 0.00547
1091.0, 0.00551
1091.2, 0.00555
1091.4, 0.00559
1091.6, 0.00563
1091.8, 0.00567
1092.0, 0.00572
1092.2, 0.00576
1092.4, 0.00581
1092.6, 0.00585
1092.8, 0.0059
1093.0, 0.00595
1093.2, 0.00601
1093.4, 0.00607
1093.6, 0.00612
1093.8, 0.00618
1094.0, 0.00624
1094.2, 0.0063
1094.4, 0.00636
1094.6, 0.00643
1094.8, 0.00651
1095.0, 0.00658
1095.2, 0.00665
1095.4, 0.00673
1095.6, 0.0068
1095.8, 0.00688
1096.0, 0.00695
1096.2, 0.00702
1096.4, 0.00709
1096.6, 0.00716
1096.8, 0.00723
1097.0, 0.0073
1097.2, 0.00739
1097.4, 0.00747
1097.6, 0.00756
1097.8, 0.00765
1098.0, 0.00774
1098.2, 0.00783
1098.4, 0.00792
1098.6, 0.00802
1098.8, 0.00811
1099.0, 0.00821
1099.2, 0.00831
1099.4, 0.0084
1099.6, 0.00849
1099.8, 0.00857
1100.0, 0.00866
1100.2, 0.00875
1100.4, 0.00884
1100.6, 0.00894
1100.8, 0.00905
1101.0, 0.00916
1101.2, 0.00926
1101.4, 0.00937
1101.6, 0.00949
1101.8, 0.00961
1102.0, 0.00973
1102.2, 0.00985
1102.4, 0.00998
1102.6, 0.0101
1102.8, 0.01023
1103.0, 0.01033
1103.2, 0.01043
1103.4, 0.01053
1103.6, 0.01064
1103.8, 0.01074
1104.0, 0.01087
1104.2, 0.01102
1104.4, 0.01118
1104.6, 0.01133
1104.8, 0.01149
1105.0, 0.01164
1105.2, 0.01181
1105.4, 0.01197
1105.6, 0.01215
1105.8, 0.01232
1106.0, 0.0125
1106.2, 0.01267
1106.4, 0.01282
1106.6, 0.01296
1106.8, 0.01309
1107.0, 0.01323
1107.2, 0.01336
1107.4, 0.0135
1107.6, 0.0137
1107.8, 0.01391
1108.0, 0.01412
1108.2, 0.01433
1108.4, 0.01455
1108.6, 0.01473
1108.8, 0.01482
1109.0, 0.01492
1109.2, 0.01502
1109.4, 0.01512
1109.6, 0.01523
1109.8, 0.01533
1110.0, 0.01543
1110.2, 0.01764
1110.4, 0.01785
1110.6, 0.01808
1110.8, 0.01832
1111.0, 0.01857
1111.2, 0.01886
1111.4, 0.01914
1111.6, 0.01935
1111.8, 0.01953
1112.0, 0.01975
1112.2, 0.02008
1112.4, 0.0204
1112.6, 0.02064
1112.8, 0.02088
1113.0, 0.02112
1113.2, 0.02137
1113.4, 0.02162
1113.6, 0.02189
1113.8, 0.02216
1114.0, 0.02252
1114.2, 0.02293
1114.4, 0.02333
1114.6, 0.02369
1114.8, 0.02405
1115.0, 0.02433
1115.2, 0.02459
1115.4, 0.02487
1115.6, 0.02519
1115.8, 0.02551
1116.0, 0.02585
1116.2, 0.0262
1116.4, 0.02654
1116.6, 0.02687
1116.8, 0.02721
1117.0, 0.0276
1117.2, 0.02799
1117.4, 0.02844
1117.6, 0.02892
1117.8, 0.02938
1118.0, 0.02982
1118.2, 0.03026
1118.4, 0.0307
1118.6, 0.03115
1118.8, 0.03162
1119.0, 0.03212
1119.2, 0.03262
1119.4, 0.03313
1119.6, 0.03364
1119.8, 0.03427
1120.0, 0.03496
1120.2, 0.03562
1120.4, 0.03611
1120.6, 0.03659
1120.8, 0.03598
1121.0, 0.0351
1121.2, 0.03565
1121.4, 0.03621
1121.6, 0.03678
1121.8, 0.03735
1122.0, 0.03794
1122.2, 0.03857
1122.4, 0.03921
1122.6, 0.03985
1122.8, 0.04051
1123.0, 0.04118
1123.2, 0.04186
1123.4, 0.04255
1123.6, 0.04326
1123.8, 0.04397
1124.0, 0.0447
1124.2, 0.04548
1124.4, 0.04627
1124.6, 0.04707
1124.8, 0.04789
1125.0, 0.04872
1125.2, 0.0496
1125.4, 0.0505
1125.6, 0.05142
1125.8, 0.05235
1126.0, 0.0533
1126.2, 0.05424
1126.4, 0.0552
1126.6, 0.05618
1126.8, 0.05717
1127.0, 0.05818
1127.2, 0.05927
1127.4, 0.06038
1127.6, 0.06152
1127.8, 0.06267
1128.0, 0.06384
1128.2, 0.06482
1128.4, 0.06581
1128.6, 0.06682
1128.8, 0.06785
1129.0, 0.06889
1129.2, 0.07004
1129.4, 0.07121
1129.6, 0.07239
1129.8, 0.0736
1130.0, 0.07482
1130.2, 0.07587
1130.4, 0.07694
1130.6, 0.07802
1130.8, 0.07912
1131.0, 0.08023
1131.2, 0.08125
1131.4, 0.08229
1131.6, 0.08335
1131.8, 0.08441
1132.0, 0.08549
1132.2, 0.0863
1132.4, 0.08712
1132.6, 0.08795
1132.8, 0.08878
1133.0, 0.08961
1133.2, 0.09015
1133.4, 0.09069
1133.6, 0.09124
1133.8, 0.09179
1134.0, 0.09234
1134.2, 0.0928
1134.4, 0.09326
1134.6, 0.09373
1134.8, 0.0942
1135.0, 0.09467
1135.2, 0.09517
1135.4, 0.09569
1135.6, 0.0962
1135.8, 0.09671
1136.0, 0.09723
1136.2, 0.09715
1136.4, 0.09708
1136.6, 0.097
1136.8, 0.09693
1137.0, 0.09685
1137.2, 0.09671
1137.4, 0.09657
1137.6, 0.09643
1137.8, 0.09629
1138.0, 0.09615
1138.2, 0.09582
1138.4, 0.09548
1138.6, 0.09515
1138.8, 0.09482
1139.0, 0.09449
1139.2, 0.09394
1139.4, 0.0934
1139.6, 0.09286
1139.8, 0.09232
1140.0, 0.09179
1140.2, 0.09104
1140.4, 0.09029
1140.6, 0.08955
1140.8, 0.08882
1141.0, 0.0881
1141.2, 0.08751
1141.4, 0.08693
1141.6, 0.08635
1141.8, 0.08578
1142.0, 0.08521
1142.2, 0.08471
1142.4, 0.08421
1142.6, 0.08372
1142.8, 0.08322
1143.0, 0.08274
1143.2, 0.08233
1143.4, 0.08192
1143.6, 0.08151
1143.8, 0.08111
1144.0, 0.0807
1144.2, 0.08011
1144.4, 0.07953
1144.6, 0.07896
1144.8, 0.07839
1145.0, 0.07781
1145.2, 0.07709
1145.4, 0.07637
1145.6, 0.07566
1145.8, 0.07496
1146.0, 0.07427
1146.2, 0.07397
1146.4, 0.07367
1146.6, 0.07337
1146.8, 0.07307
1147.0, 0.07278
1147.2, 0.07255
1147.4, 0.07233
1147.6, 0.07211
1147.8, 0.07188
1148.0, 0.07166
1148.2, 0.07132
1148.4, 0.07098
1148.6, 0.07065
1148.8, 0.07032
1149.0, 0.06999
1149.2, 0.06966
1149.4, 0.06934
1149.6, 0.06901
1149.8, 0.06869
1150.0, 0.06839
1150.2, 0.06846
1150.4, 0.06852
1150.6, 0.06859
1150.8, 0.06865
1151.0, 0.06872
1151.2, 0.06881
1151.4, 0.0689
1151.6, 0.06899
1151.8, 0.06908
1152.0, 0.06915
1152.2, 0.06888
1152.4, 0.06862
1152.6, 0.06835
1152.8, 0.06809
1153.0, 0.06784
1153.2, 0.06788
1153.4, 0.06792
1153.6, 0.06797
1153.8, 0.06801
1154.0, 0.06806
1154.2, 0.06859
1154.4, 0.06913
1154.6, 0.06968
1154.8, 0.07023
1155.0, 0.07078
1155.2, 0.07081
1155.4, 0.07085
1155.6, 0.07088
1155.8, 0.07092
1156.0, 0.07096
1156.2, 0.07133
1156.4, 0.0717
1156.6, 0.07207
1156.8, 0.07245
1157.0, 0.07283
1157.2, 0.07347
1157.4, 0.07412
1157.6, 0.07478
1157.8, 0.07544
1158.0, 0.0761
1158.2, 0.07635
1158.4, 0.0766
1158.6, 0.07685
1158.8, 0.0771
1159.0, 0.07736
1159.2, 0.07819
1159.4, 0.07903
1159.6, 0.07988
1159.8, 0.08074
1160.0, 0.08161
1160.2, 0.08244
1160.4, 0.08329
1160.6, 0.08414
1160.8, 0.085
1161.0, 0.08586
1161.2, 0.08636
1161.4, 0.08685
1161.6, 0.08735
1161.8, 0.08785
1162.0, 0.08838
1162.2, 0.08963
1162.4, 0.0909
1162.6, 0.09219
1162.8, 0.0935
1163.0, 0.09481
1163.2, 0.09558
1163.4, 0.09636
1163.6, 0.09714
1163.8, 0.09793
1164.0, 0.09874
1164.2, 0.09994
1164.4, 0.10116
1164.6, 0.10239
1164.8, 0.10363
1165.0, 0.10489
1165.2, 0.10645
1165.4, 0.10803
1165.6, 0.10964
1165.8, 0.11127
1166.0, 0.11291
1166.2, 0.11381
1166.4, 0.11472
1166.6, 0.11564
1166.8, 0.11656
1167.0, 0.11752
1167.2, 0.11961
1167.4, 0.12173
1167.6, 0.12389
1167.8, 0.12608
1168.0, 0.12828
1168.2, 0.12937
1168.4, 0.13046
1168.6, 0.13157
1168.8, 0.13268
1169.0, 0.13384
1169.2, 0.13573
1169.4, 0.13764
1169.6, 0.13959
1169.8, 0.14156
1170.0, 0.14356
1170.2, 0.14556
1170.4, 0.1476
1170.6, 0.14967
1170.8, 0.15176
1171.0, 0.15387
1171.2, 0.15531
1171.4, 0.15676
1171.6, 0.15822
1171.8, 0.1597
1172.0, 0.16123
1172.2, 0.1638
1172.4, 0.16641
1172.6, 0.16906
1172.8, 0.17176
1173.0, 0.17448
1173.2, 0.17565
1173.4, 0.17683
1173.6, 0.17802
1173.8, 0.17921
1174.0, 0.18045
1174.2, 0.18306
1174.4, 0.18571
1174.6, 0.1884
1174.8, 0.19113
1175.0, 0.19383
1175.2, 0.19513
1175.4, 0.19643
1175.6, 0.19773
1175.8, 0.19905
1176.0, 0.20039
1176.2, 0.20263
1176.4, 0.20491
1176.6, 0.20721
1176.8, 0.20953
1177.0, 0.21185
1177.2, 0.21317
1177.4, 0.21449
1177.6, 0.21582
1177.8, 0.21717
1178.0, 0.21854
1178.2, 0.22045
1178.4, 0.22238
1178.6, 0.22432
1178.8, 0.22628
1179.0, 0.22825
1179.2, 0.2297
1179.4, 0.23117
1179.6, 0.23264
1179.8, 0.23413
1180.0, 0.23562
1180.2, 0.23714
1180.4, 0.23867
1180.6, 0.24021
1180.8, 0.24176
1181.0, 0.24332
1181.2, 0.24472
1181.4, 0.24612
1181.6, 0.24753
1181.8, 0.24895
1182.0, 0.25038
1182.2, 0.25168
1182.4, 0.25299
1182.6, 0.2543
1182.8, 0.25562
1183.0, 0.25695
1183.2, 0.25814
1183.4, 0.25933
1183.6, 0.26053
1183.8, 0.26173
1184.0, 0.26294
1184.2, 0.26426
1184.4, 0.26559
1184.6, 0.26692
1184.8, 0.26826
1185.0, 0.26961
1185.2, 0.27054
1185.4, 0.27149
1185.6, 0.27243
1185.8, 0.27338
1186.0, 0.27434
1186.2, 0.27568
1186.4, 0.27702
1186.6, 0.27837
1186.8, 0.27972
1187.0, 0.28108
1187.2, 0.28171
1187.4, 0.28235
1187.6, 0.28298
1187.8, 0.28362
1188.0, 0.28429
1188.2, 0.28577
1188.4, 0.28726
1188.6, 0.28876
1188.8, 0.29027
1189.0, 0.29178
1189.2, 0.29214
1189.4, 0.2925
1189.6, 0.29287
1189.8, 0.29323
1190.0, 0.29362
1190.2, 0.29512
1190.4, 0.29663
1190.6, 0.29814
1190.8, 0.29966
1191.0, 0.30117
1191.2, 0.30165
1191.4, 0.30213
1191.6, 0.30261
1191.8, 0.30309
1192.0, 0.30358
1192.2, 0.30441
1192.4, 0.30524
1192.6, 0.30607
1192.8, 0.3069
1193.0, 0.30774
1193.2, 0.30861
1193.4, 0.30948
1193.6, 0.31035
1193.8, 0.31122
1194.0, 0.31206
1194.2, 0.31216
1194.4, 0.31227
1194.6, 0.31237
1194.8, 0.31247
1195.0, 0.31259
1195.2, 0.31334
1195.4, 0.31409
1195.6, 0.31484
1195.8, 0.3156
1196.0, 0.31634
1196.2, 0.31621
1196.4, 0.31608
1196.6, 0.31595
1196.8, 0.31582
1197.0, 0.31569
1197.2, 0.31581
1197.4, 0.31592
1197.6, 0.31604
1197.8, 0.31616
1198.0, 0.31627
1198.2, 0.31638
1198.4, 0.31648
1198.6, 0.31659
1198.8, 0.31669
1199.0, 0.3168
1199.2, 0.31576
1199.4, 0.31472
1199.6, 0.31369
1199.8, 0.31266
1200.0, 0.31163
1119.2, 0.03262
1119.4, 0.03313
1119.6, 0.03364
1119.8, 0.03427
1120.0, 0.03496
1120.2, 0.03562
1120.4, 0.03611
1120.6, 0.03659
1120.8, 0.03598
1121.0, 0.0351
1121.2, 0.03565
1121.4, 0.03621
1121.6, 0.03678
1121.8, 0.03735
1122.0, 0.03794
1122.2, 0.03857
1122.4, 0.03921
1122.6, 0.03985
1122.8, 0.04051
1123.0, 0.04118
1123.2, 0.04186
1123.4, 0.04255
1123.6, 0.04326
1123.8, 0.04397
1124.0, 0.0447
1124.2, 0.04548
1124.4, 0.04627
1124.6, 0.04707
1124.8, 0.04789
1125.0, 0.04872
1125.2, 0.0496
1125.4, 0.0505
1125.6, 0.05142
1125.8, 0.05235
1126.0, 0.0533
1126.2, 0.05424
1126.4, 0.0552
1126.6, 0.05618
1126.8, 0.05717
1127.0, 0.05818
1127.2, 0.05927
1127.4, 0.06038
1127.6, 0.06152
1127.8, 0.06267
1128.0, 0.06384
1128.2, 0.06482
1128.4, 0.06581
1128.6, 0.06682
1128.8, 0.06785
1129.0, 0.06889
1129.2, 0.07004
1129.4, 0.07121
1129.6, 0.07239
1129.8, 0.0736
1130.0, 0.07482
1130.2, 0.07587
1130.4, 0.07694
1130.6, 0.07802
1130.8, 0.07912
1131.0, 0.08023
1131.2, 0.08125
1131.4, 0.08229
1131.6, 0.08335
1131.8, 0.08441
1132.0, 0.08549
1132.2, 0.0863
1132.4, 0.08712
1132.6, 0.08795
1132.8, 0.08878
1133.0, 0.08961
1133.2, 0.09015
1133.4, 0.09069
1133.6, 0.09124
1133.8, 0.09179
1134.0, 0.09234
1134.2, 0.0928
1134.4, 0.09326
1134.6, 0.09373
1134.8, 0.0942
1135.0, 0.09467
1135.2, 0.09517
1135.4, 0.09569
1135.6, 0.0962
1135.8, 0.09671
1136.0, 0.09723
1136.2, 0.09715
1136.4, 0.09708
1136.6, 0.097
1136.8, 0.09693
1137.0, 0.09685
1137.2, 0.09671
1137.4, 0.09657
1137.6, 0.09643
1137.8, 0.09629
1138.0, 0.09615
1138.2, 0.09582
1138.4, 0.09548
1138.6, 0.09515
1138.8, 0.09482
1139.0, 0.09449
1139.2, 0.09394
1139.4, 0.0934
1139.6, 0.09286
1139.8, 0.09232
1140.0, 0.09179
1140.2, 0.09104
1140.4, 0.09029
1140.6, 0.08955
1140.8, 0.08882
1141.0, 0.0881
1141.2, 0.08751
1141.4, 0.08693
1141.6, 0.08635
1141.8, 0.08578
1142.0, 0.08521
1142.2, 0.08471
1142.4, 0.08421
1142.6, 0.08372
1142.8, 0.08322
1143.0, 0.08274
1143.2, 0.08233
1143.4, 0.08192
1143.6, 0.08151
1143.8, 0.08111
1144.0, 0.0807
1144.2, 0.08011
1144.4, 0.07953
1144.6, 0.07896
1144.8, 0.07839
1145.0, 0.07781
1145.2, 0.07709
1145.4, 0.07637
1145.6, 0.07566
1145.8, 0.07496
1146.0, 0.07427
1146.2, 0.07397
1146.4, 0.07367
1146.6, 0.07337
1146.8, 0.07307
1147.0, 0.07278
1147.2, 0.07255
1147.4, 0.07233
1147.6, 0.07211
1147.8, 0.07188
1148.0, 0.07166
1148.2, 0.07132
1148.4, 0.07098
1148.6, 0.07065
1148.8, 0.07032
1149.0, 0.06999
1149.2, 0.06966
1149.4, 0.06934
1149.6, 0.06901
1149.8, 0.06869
1150.0, 0.06839
1150.2, 0.06846
1150.4, 0.06852
1150.6, 0.06859
1150.8, 0.06865
1151.0, 0.06872
1151.2, 0.06881
1151.4, 0.0689
1151.6, 0.06899
1151.8, 0.06908
1152.0, 0.06915
1152.2, 0.06888
1152.4, 0.06862
1152.6, 0.06835
1152.8, 0.06809
1153.0, 0.06784
1153.2, 0.06788
1153.4, 0.06792
1153.6, 0.06797
1153.8, 0.06801
1154.0, 0.06806
1154.2, 0.06859
1154.4, 0.06913
1154.6, 0.06968
1154.8, 0.07023
1155.0, 0.07078
1155.2, 0.07081
1155.4, 0.07085
1155.6, 0.07088
1155.8, 0.07092
1156.0, 0.07096
1156.2, 0.07133
1156.4, 0.0717
1156.6, 0.07207
1156.8, 0.07245
1157.0, 0.07283
1157.2, 0.07347
1157.4, 0.07412
1157.6, 0.07478
1157.8, 0.07544
1158.0, 0.0761
1158.2, 0.07635
1158.4, 0.0766
1158.6, 0.07685
1158.8, 0.0771
1159.0, 0.07736
1159.2, 0.07819
1159.4, 0.07903
1159.6, 0.07988
1159.8, 0.08074
1160.0, 0.08161
1160.2, 0.08244
1160.4, 0.08329
1160.6, 0.08414
1160.8, 0.085
1161.0, 0.08586
1161.2, 0.08636
1161.4, 0.08685
1161.6, 0.08735
1161.8, 0.08785
1162.0, 0.08838
1162.2, 0.08963
1162.4, 0.0909
1162.6, 0.09219
1162.8, 0.0935
1163.0, 0.09481
1163.2, 0.09558
1163.4, 0.09636
1163.6, 0.09714
1163.8, 0.09793
1164.0, 0.09874
1164.2, 0.09994
1164.4, 0.10116
1164.6, 0.10239
1164.8, 0.10363
1165.0, 0.10489
1165.2, 0.10645
1165.4, 0.10803
1165.6, 0.10964
1165.8, 0.11127
1166.0, 0.11291
1166.2, 0.11381
1166.4, 0.11472
1166.6, 0.11564
1166.8, 0.11656
1167.0, 0.11752
1167.2, 0.11961
1167.4, 0.12173
1167.6, 0.12389
1167.8, 0.12608
1168.0, 0.12828
1168.2, 0.12937
1168.4, 0.13046
1168.6, 0.13157
1168.8, 0.13268
1169.0, 0.13384
1169.2, 0.13573
1169.4, 0.13764
1169.6, 0.13959
1169.8, 0.14156
1170.0, 0.14356
1170.2, 0.14556
1170.4, 0.1476
1170.6, 0.14967
1170.8, 0.15176
1171.0, 0.15387
1171.2, 0.15531
1171.4, 0.15676
1171.6, 0.15822
1171.8, 0.1597
1172.0, 0.16123
1172.2, 0.1638
1172.4, 0.16641
1172.6, 0.16906
1172.8, 0.17176
1173.0, 0.17448
1173.2, 0.17565
1173.4, 0.17683
1173.6, 0.17802
1173.8, 0.17921
1174.0, 0.18045
1174.2, 0.18306
1174.4, 0.18571
1174.6, 0.1884
1174.8, 0.19113
1175.0, 0.19383
1175.2, 0.19513
1175.4, 0.19643
1175.6, 0.19773
1175.8, 0.19905
1176.0, 0.20039
1176.2, 0.20263
1176.4, 0.20491
1176.6, 0.20721
1176.8, 0.20953
1177.0, 0.21185
1177.2, 0.21317
1177.4, 0.21449
1177.6, 0.21582
1177.8, 0.21717
1178.0, 0.21854
1178.2, 0.22045
1178.4, 0.22238
1178.6, 0.22432
1178.8, 0.22628
1179.0, 0.22825
1179.2, 0.2297
1179.4, 0.23117
1179.6, 0.23264
1179.8, 0.23413
1180.0, 0.23562
1180.2, 0.23714
1180.4, 0.23867
1180.6, 0.24021
1180.8, 0.24176
1181.0, 0.24332
1181.2, 0.24472
1181.4, 0.24612
1181.6, 0.24753
1181.8, 0.24895
1182.0, 0.25038
1182.2, 0.25168
1182.4, 0.25299
1182.6, 0.2543
1182.8, 0.25562
1183.0, 0.25695
1183.2, 0.25814
1183.4, 0.25933
1183.6, 0.26053
1183.8, 0.26173
1184.0, 0.26294
1184.2, 0.26426
1184.4, 0.26559
1184.6, 0.26692
1184.8, 0.26826
1185.0, 0.26961
1185.2, 0.27054
1185.4, 0.27149
1185.6, 0.27243
1185.8, 0.27338
1186.0, 0.27434
1186.2, 0.27568
1186.4, 0.27702
1186.6, 0.27837
1186.8, 0.27972
1187.0, 0.28108
1187.2, 0.28171
1187.4, 0.28235
1187.6, 0.28298
1187.8, 0.28362
1188.0, 0.28429
1188.2, 0.28577
1188.4, 0.28726
1188.6, 0.28876
1188.8, 0.29027
1189.0, 0.29178
1189.2, 0.29214
1189.4, 0.2925
1189.6, 0.29287
1189.8, 0.29323
1190.0, 0.29362
1190.2, 0.29512
1190.4, 0.29663
1190.6, 0.29814
1190.8, 0.29966
1191.0, 0.30117
1191.2, 0.30165
1191.4, 0.30213
1191.6, 0.30261
1191.8, 0.30309
1192.0, 0.30358
1192.2, 0.30441
1192.4, 0.30524
1192.6, 0.30607
1192.8, 0.3069
1193.0, 0.30774
1193.2, 0.30861
1193.4, 0.30948
1193.6, 0.31035
1193.8, 0.31122
1194.0, 0.31206
1194.2, 0.31216
1194.4, 0.31227
1194.6, 0.31237
1194.8, 0.31247
1195.0, 0.31259
1195.2, 0.31334
1195.4, 0.31409
1195.6, 0.31484
1195.8, 0.3156
1196.0, 0.31634
1196.2, 0.31621
1196.4, 0.31608
1196.6, 0.31595
1196.8, 0.31582
1197.0, 0.31569
1197.2, 0.31581
1197.4, 0.31592
1197.6, 0.31604
1197.8, 0.31616
1198.0, 0.31627
1198.2, 0.31638
1198.4, 0.31648
1198.6, 0.31659
1198.8, 0.31669
1199.0, 0.3168
1199.2, 0.31576
1199.4, 0.31472
1199.6, 0.31369
1199.8, 0.31266
1200.0, 0.31163