#Typical Measured Spectrum of Semrock FF01-609/54 Optical Filter	
#For wavelengths between 320 and 1120 nm, values near or below 3e-7 (Optical Density 6.5) are measurement noise limited.
#For wavelengths < 320 nm and > 1120 nm, values near or below 3e-6 (Optical Density 5.5) are measurement noise limited. 
#Data format:  Wavelength (nm) <tab> Transmission (0 to 1)
#Type: Filter
#Name: Semrock FF01-609_54
wavelength,transmission
300.0, 1.6234e-06
300.2, 1.4965e-06
300.4, 1.3795e-06
300.6, 1.2716e-06
300.8, 1.1722e-06
301.0, 1.0806e-06
301.2, 9.9611e-07
301.4, 9.1824e-07
301.6, 8.4645e-07
301.8, 7.8028e-07
302.0, 6.713e-07
302.2, 5.7734e-07
302.4, 4.9653e-07
302.6, 4.2703e-07
302.8, 3.6725e-07
303.0, 3.1585e-07
303.2, 2.7164e-07
303.4, 2.3362e-07
303.6, 2.0092e-07
303.8, 1.728e-07
304.0, 1.8053e-07
304.2, 1.9893e-07
304.4, 2.1921e-07
304.6, 2.4156e-07
304.8, 2.6619e-07
305.0, 2.9332e-07
305.2, 3.2323e-07
305.4, 3.5618e-07
305.6, 3.9249e-07
305.8, 4.325e-07
306.0, 4.6214e-07
306.2, 4.8269e-07
306.4, 5.0416e-07
306.6, 5.2658e-07
306.8, 5.5e-07
307.0, 5.7446e-07
307.2, 6.0001e-07
307.4, 6.267e-07
307.6, 6.5457e-07
307.8, 6.8368e-07
308.0, 7.2708e-07
308.2, 7.9732e-07
308.4, 8.7436e-07
308.6, 9.5883e-07
308.8, 1.0515e-06
309.0, 1.1531e-06
309.2, 1.2645e-06
309.4, 1.3866e-06
309.6, 1.5206e-06
309.8, 1.6675e-06
310.0, 1.7926e-06
310.2, 1.5327e-06
310.4, 1.3104e-06
310.6, 1.1204e-06
310.8, 9.5797e-07
311.0, 8.1907e-07
311.2, 7.0031e-07
311.4, 5.9877e-07
311.6, 5.1196e-07
311.8, 4.3773e-07
312.0, 3.8841e-07
312.2, 3.4499e-07
312.4, 3.0642e-07
312.6, 2.7216e-07
312.8, 2.4173e-07
313.0, 2.147e-07
313.2, 1.9069e-07
313.4, 1.6937e-07
313.6, 1.5044e-07
313.8, 1.3362e-07
314.0, 1.5013e-07
314.2, 1.8132e-07
314.4, 2.19e-07
314.6, 2.6449e-07
314.8, 3.1945e-07
315.0, 3.8581e-07
315.2, 4.6597e-07
315.4, 5.6278e-07
315.6, 6.797e-07
315.8, 8.2092e-07
316.0, 9.158e-07
316.2, 9.6107e-07
316.4, 1.0086e-06
316.6, 1.0584e-06
316.8, 1.1108e-06
317.0, 1.1657e-06
317.2, 1.2233e-06
317.4, 1.2838e-06
317.6, 1.3472e-06
317.8, 1.4138e-06
318.0, 1.3758e-06
318.2, 1.1739e-06
318.4, 1.0016e-06
318.6, 8.5457e-07
318.8, 7.2914e-07
319.0, 6.2213e-07
319.2, 5.3082e-07
319.4, 4.5291e-07
319.6, 3.8644e-07
319.8, 3.2972e-07
320.0, 2.8271e-07
320.2, 2.5652e-07
320.4, 2.3275e-07
320.6, 2.1118e-07
320.8, 1.9162e-07
321.0, 1.7386e-07
321.2, 1.5775e-07
321.4, 1.4313e-07
321.6, 1.2987e-07
321.8, 1.1784e-07
322.0, 1.4906e-07
322.2, 1.8985e-07
322.4, 2.4179e-07
322.6, 3.0795e-07
322.8, 3.922e-07
323.0, 4.9951e-07
323.2, 6.3618e-07
323.4, 8.1024e-07
323.6, 1.0319e-06
323.8, 1.3143e-06
324.0, 1.1295e-06
324.2, 8.6868e-07
324.4, 6.6812e-07
324.6, 5.1387e-07
324.8, 3.9523e-07
325.0, 3.0398e-07
325.2, 2.338e-07
325.4, 1.7982e-07
325.6, 1.383e-07
325.8, 1.0637e-07
326.0, 1.1001e-07
326.2, 1.4098e-07
326.4, 1.8068e-07
326.6, 2.3155e-07
326.8, 2.9675e-07
327.0, 3.8031e-07
327.2, 4.8739e-07
327.4, 6.2462e-07
327.6, 8.0049e-07
327.8, 1.0259e-06
328.0, 1.0822e-06
328.2, 8.3651e-07
328.4, 6.4661e-07
328.6, 4.9982e-07
328.8, 3.8635e-07
329.0, 2.9864e-07
329.2, 2.3085e-07
329.4, 1.7844e-07
329.6, 1.3793e-07
329.8, 1.0662e-07
330.0, 8.5448e-08
330.2, 9.6621e-08
330.4, 1.0925e-07
330.6, 1.2354e-07
330.8, 1.3969e-07
331.0, 1.5796e-07
331.2, 1.7861e-07
331.4, 2.0197e-07
331.6, 2.2837e-07
331.8, 2.5823e-07
332.0, 2.8329e-07
332.2, 3.1029e-07
332.4, 3.3985e-07
332.6, 3.7224e-07
332.8, 4.077e-07
333.0, 4.4655e-07
333.2, 4.891e-07
333.4, 5.3571e-07
333.6, 5.8675e-07
333.8, 6.4266e-07
334.0, 5.4645e-07
334.2, 4.2798e-07
334.4, 3.352e-07
334.6, 2.6254e-07
334.8, 2.0562e-07
335.0, 1.6105e-07
335.2, 1.2613e-07
335.4, 9.8789e-08
335.6, 7.7373e-08
335.8, 6.0599e-08
336.0, 5.4154e-08
336.2, 5.3566e-08
336.4, 5.2985e-08
336.6, 5.241e-08
336.8, 5.1841e-08
337.0, 5.1279e-08
337.2, 5.0723e-08
337.4, 5.0172e-08
337.6, 4.9628e-08
337.8, 4.9089e-08
338.0, 4.8575e-08
338.2, 4.8096e-08
338.4, 4.7622e-08
338.6, 4.7152e-08
338.8, 4.6687e-08
339.0, 4.6227e-08
339.2, 4.5771e-08
339.4, 4.5319e-08
339.6, 4.4873e-08
339.8, 4.443e-08
340.0, 4.3991e-08
340.2, 4.3549e-08
340.4, 4.3111e-08
340.6, 4.2678e-08
340.8, 4.2249e-08
341.0, 4.1824e-08
341.2, 4.1404e-08
341.4, 4.0987e-08
341.6, 4.0575e-08
341.8, 4.0167e-08
342.0, 4.6182e-08
342.2, 5.3699e-08
342.4, 6.244e-08
342.6, 7.2604e-08
342.8, 8.4421e-08
343.0, 9.8163e-08
343.2, 1.1414e-07
343.4, 1.3272e-07
343.6, 1.5432e-07
343.8, 1.7944e-07
344.0, 1.9679e-07
344.2, 2.1142e-07
344.4, 2.2714e-07
344.6, 2.4403e-07
344.8, 2.6217e-07
345.0, 2.8166e-07
345.2, 3.0261e-07
345.4, 3.251e-07
345.6, 3.4928e-07
345.8, 3.7525e-07
346.0, 3.3996e-07
346.2, 2.6864e-07
346.4, 2.1229e-07
346.6, 1.6776e-07
346.8, 1.3257e-07
347.0, 1.0476e-07
347.2, 8.2781e-08
347.4, 6.5416e-08
347.6, 5.1693e-08
347.8, 4.0849e-08
348.0, 3.7829e-08
348.2, 4.5632e-08
348.4, 5.5044e-08
348.6, 6.6399e-08
348.8, 8.0095e-08
349.0, 9.6616e-08
349.2, 1.1655e-07
349.4, 1.4059e-07
349.6, 1.6959e-07
349.8, 2.0457e-07
350.0, 2.4477e-07
350.2, 2.7111e-07
350.4, 3.0029e-07
350.6, 3.326e-07
350.8, 3.6839e-07
351.0, 4.0803e-07
351.2, 4.5194e-07
351.4, 5.0057e-07
351.6, 5.5444e-07
351.8, 6.141e-07
352.0, 6.4345e-07
352.2, 6.714e-07
352.4, 7.0056e-07
352.6, 7.3098e-07
352.8, 7.6272e-07
353.0, 7.9585e-07
353.2, 8.3041e-07
353.4, 8.6647e-07
353.6, 9.041e-07
353.8, 9.4336e-07
354.0, 9.5206e-07
354.2, 9.4994e-07
354.4, 9.4782e-07
354.6, 9.457e-07
354.8, 9.4359e-07
355.0, 9.4149e-07
355.2, 9.3939e-07
355.4, 9.3729e-07
355.6, 9.352e-07
355.8, 9.3311e-07
356.0, 9.9269e-07
356.2, 1.1095e-06
356.4, 1.2401e-06
356.6, 1.3861e-06
356.8, 1.5492e-06
357.0, 1.7315e-06
357.2, 1.9353e-06
357.4, 2.1631e-06
357.6, 2.4177e-06
357.8, 2.7023e-06
358.0, 2.8849e-06
358.2, 2.8665e-06
358.4, 2.8483e-06
358.6, 2.8301e-06
358.8, 2.8121e-06
359.0, 2.7942e-06
359.2, 2.7764e-06
359.4, 2.7587e-06
359.6, 2.7412e-06
359.8, 2.7237e-06
360.0, 2.7385e-06
360.2, 3.0443e-06
360.4, 3.3843e-06
360.6, 3.7623e-06
360.8, 4.1825e-06
361.0, 4.6496e-06
361.2, 5.1689e-06
361.4, 5.7462e-06
361.6, 6.3879e-06
361.8, 7.1014e-06
362.0, 7.8314e-06
362.2, 8.6321e-06
362.4, 9.5146e-06
362.6, 1.0487e-05
362.8, 1.156e-05
363.0, 1.2741e-05
363.2, 1.4044e-05
363.4, 1.548e-05
363.6, 1.7063e-05
363.8, 1.8807e-05
364.0, 1.7519e-05
364.2, 1.5496e-05
364.4, 1.3707e-05
364.6, 1.2125e-05
364.8, 1.0725e-05
365.0, 9.4872e-06
365.2, 8.392e-06
365.4, 7.4232e-06
365.6, 6.5663e-06
365.8, 5.8083e-06
366.0, 5.2315e-06
366.2, 4.7716e-06
366.4, 4.3521e-06
366.6, 3.9695e-06
366.8, 3.6206e-06
367.0, 3.3023e-06
367.2, 3.012e-06
367.4, 2.7472e-06
367.6, 2.5057e-06
367.8, 2.2854e-06
368.0, 2.1235e-06
368.2, 2.0252e-06
368.4, 1.9315e-06
368.6, 1.8421e-06
368.8, 1.7569e-06
369.0, 1.6756e-06
369.2, 1.598e-06
369.4, 1.5241e-06
369.6, 1.4536e-06
369.8, 1.3863e-06
370.0, 1.3214e-06
370.2, 1.2543e-06
370.4, 1.1907e-06
370.6, 1.1303e-06
370.8, 1.0729e-06
371.0, 1.0185e-06
371.2, 9.6684e-07
371.4, 9.1779e-07
371.6, 8.7123e-07
371.8, 8.2703e-07
372.0, 8.1451e-07
372.2, 8.0424e-07
372.4, 7.9409e-07
372.6, 7.8407e-07
372.8, 7.7418e-07
373.0, 7.6442e-07
373.2, 7.5477e-07
373.4, 7.4525e-07
373.6, 7.3585e-07
373.8, 7.2657e-07
374.0, 7.8259e-07
374.2, 8.6577e-07
374.4, 9.5778e-07
374.6, 1.0596e-06
374.8, 1.1722e-06
375.0, 1.2968e-06
375.2, 1.4346e-06
375.4, 1.587e-06
375.6, 1.7557e-06
375.8, 1.9423e-06
376.0, 2.01e-06
376.2, 1.9895e-06
376.4, 1.9693e-06
376.6, 1.9492e-06
376.8, 1.9293e-06
377.0, 1.9097e-06
377.2, 1.8902e-06
377.4, 1.871e-06
377.6, 1.8519e-06
377.8, 1.8331e-06
378.0, 1.7745e-06
378.2, 1.668e-06
378.4, 1.5679e-06
378.6, 1.4738e-06
378.8, 1.3854e-06
379.0, 1.3023e-06
379.2, 1.2241e-06
379.4, 1.1506e-06
379.6, 1.0816e-06
379.8, 1.0167e-06
380.0, 9.6567e-07
380.2, 9.8043e-07
380.4, 9.9542e-07
380.6, 1.0106e-06
380.8, 1.0261e-06
381.0, 1.0418e-06
381.2, 1.0577e-06
381.4, 1.0739e-06
381.6, 1.0903e-06
381.8, 1.1069e-06
382.0, 1.0858e-06
382.2, 1.0622e-06
382.4, 1.039e-06
382.6, 1.0163e-06
382.8, 9.9419e-07
383.0, 9.7251e-07
383.2, 9.5131e-07
383.4, 9.3057e-07
383.6, 9.1028e-07
383.8, 8.9043e-07
384.0, 8.4555e-07
384.2, 7.9543e-07
384.4, 7.4828e-07
384.6, 7.0393e-07
384.8, 6.6221e-07
385.0, 6.2296e-07
385.2, 5.8604e-07
385.4, 5.513e-07
385.6, 5.1863e-07
385.8, 4.8789e-07
386.0, 4.8075e-07
386.2, 4.8859e-07
386.4, 4.9656e-07
386.6, 5.0466e-07
386.8, 5.1288e-07
387.0, 5.2125e-07
387.2, 5.2975e-07
387.4, 5.3838e-07
387.6, 5.4716e-07
387.8, 5.5609e-07
388.0, 5.5437e-07
388.2, 5.3928e-07
388.4, 5.246e-07
388.6, 5.1031e-07
388.8, 4.9642e-07
389.0, 4.829e-07
389.2, 4.6976e-07
389.4, 4.5697e-07
389.6, 4.4453e-07
389.8, 4.3242e-07
390.0, 4.2051e-07
390.2, 4.081e-07
390.4, 3.9606e-07
390.6, 3.8437e-07
390.8, 3.7303e-07
391.0, 3.6202e-07
391.2, 3.5133e-07
391.4, 3.4096e-07
391.6, 3.309e-07
391.8, 3.2114e-07
392.0, 3.5676e-07
392.2, 4.0134e-07
392.4, 4.5149e-07
392.6, 5.0792e-07
392.8, 5.7139e-07
393.0, 6.4279e-07
393.2, 7.2311e-07
393.4, 8.1348e-07
393.6, 9.1513e-07
393.8, 1.0295e-06
394.0, 9.989e-07
394.2, 9.2499e-07
394.4, 8.5654e-07
394.6, 7.9316e-07
394.8, 7.3447e-07
395.0, 6.8012e-07
395.2, 6.2979e-07
395.4, 5.8319e-07
395.6, 5.4004e-07
395.8, 5.0008e-07
396.0, 5.1581e-07
396.2, 5.7171e-07
396.4, 6.3366e-07
396.6, 7.0233e-07
396.8, 7.7844e-07
397.0, 8.628e-07
397.2, 9.563e-07
397.4, 1.0599e-06
397.6, 1.1748e-06
397.8, 1.3021e-06
398.0, 1.3996e-06
398.2, 1.449e-06
398.4, 1.5002e-06
398.6, 1.5531e-06
398.8, 1.608e-06
399.0, 1.6647e-06
399.2, 1.7235e-06
399.4, 1.7844e-06
399.6, 1.8474e-06
399.8, 1.9126e-06
400.0, 2.0335e-06
400.2, 2.5138e-06
400.4, 3.1076e-06
400.6, 3.8416e-06
400.8, 4.749e-06
401.0, 5.8708e-06
401.2, 7.2575e-06
401.4, 8.9718e-06
401.6, 1.1091e-05
401.8, 1.3711e-05
402.0, 1.4543e-05
402.2, 1.5107e-05
402.4, 1.5693e-05
402.6, 1.6302e-05
402.8, 1.6935e-05
403.0, 1.7591e-05
403.2, 1.8274e-05
403.4, 1.8983e-05
403.6, 1.9719e-05
403.8, 2.0484e-05
404.0, 2.0785e-05
404.2, 2.0909e-05
404.4, 2.1033e-05
404.6, 2.1158e-05
404.8, 2.1284e-05
405.0, 2.1411e-05
405.2, 2.1538e-05
405.4, 2.1666e-05
405.6, 2.1795e-05
405.8, 2.1925e-05
406.0, 1.9359e-05
406.2, 1.5554e-05
406.4, 1.2497e-05
406.6, 1.0041e-05
406.8, 8.0672e-06
407.0, 6.4816e-06
407.2, 5.2077e-06
407.4, 4.1841e-06
407.6, 3.3617e-06
407.8, 2.701e-06
408.0, 2.5212e-06
408.2, 2.8711e-06
408.4, 3.2695e-06
408.6, 3.7232e-06
408.8, 4.2398e-06
409.0, 4.8282e-06
409.2, 5.4981e-06
409.4, 6.2611e-06
409.6, 7.1299e-06
409.8, 8.1193e-06
410.0, 9.0937e-06
410.2, 9.1974e-06
410.4, 9.3023e-06
410.6, 9.4083e-06
410.8, 9.5156e-06
411.0, 9.6241e-06
411.2, 9.7339e-06
411.4, 9.8448e-06
411.6, 9.9571e-06
411.8, 1.0071e-05
412.0, 8.0278e-06
412.2, 6.1853e-06
412.4, 4.7658e-06
412.6, 3.672e-06
412.8, 2.8292e-06
413.0, 2.1799e-06
413.2, 1.6796e-06
413.4, 1.2941e-06
413.6, 9.9712e-07
413.8, 7.6827e-07
414.0, 8.358e-07
414.2, 1.033e-06
414.4, 1.2768e-06
414.6, 1.578e-06
414.8, 1.9504e-06
415.0, 2.4105e-06
415.2, 2.9793e-06
415.4, 3.6823e-06
415.6, 4.5512e-06
415.8, 5.625e-06
416.0, 5.6129e-06
416.2, 4.812e-06
416.4, 4.1253e-06
416.6, 3.5367e-06
416.8, 3.032e-06
417.0, 2.5993e-06
417.2, 2.2284e-06
417.4, 1.9104e-06
417.6, 1.6378e-06
417.8, 1.4041e-06
418.0, 1.3724e-06
418.2, 1.5797e-06
418.4, 1.8183e-06
418.6, 2.0929e-06
418.8, 2.409e-06
419.0, 2.7728e-06
419.2, 3.1916e-06
419.4, 3.6737e-06
419.6, 4.2286e-06
419.8, 4.8672e-06
420.0, 5.2606e-06
420.2, 4.0345e-06
420.4, 3.0941e-06
420.6, 2.373e-06
420.8, 1.8199e-06
421.0, 1.3957e-06
421.2, 1.0704e-06
421.4, 8.2091e-07
421.6, 6.2957e-07
421.8, 4.8283e-07
422.0, 5.0448e-07
422.2, 5.4764e-07
422.4, 5.9448e-07
422.6, 6.4534e-07
422.8, 7.0054e-07
423.0, 7.6047e-07
423.2, 8.2552e-07
423.4, 8.9614e-07
423.6, 9.728e-07
423.8, 1.056e-06
424.0, 1.1464e-06
424.2, 1.2444e-06
424.4, 1.3509e-06
424.6, 1.269e-06
424.8, 1.1677e-06
425.0, 1.0745e-06
425.2, 9.8876e-07
425.4, 9.0984e-07
425.6, 8.3722e-07
425.8, 7.704e-07
426.0, 7.0891e-07
426.2, 6.5233e-07
426.4, 6.0417e-07
426.6, 5.7085e-07
426.8, 5.3936e-07
427.0, 5.0961e-07
427.2, 4.8151e-07
427.4, 4.5495e-07
427.6, 4.2986e-07
427.8, 4.0615e-07
428.0, 3.8375e-07
428.2, 3.6258e-07
428.4, 3.4786e-07
428.6, 3.7764e-07
428.8, 4.0997e-07
429.0, 4.4506e-07
429.2, 4.8316e-07
429.4, 5.2453e-07
429.6, 5.6943e-07
429.8, 6.1818e-07
430.0, 6.711e-07
430.2, 7.2855e-07
430.4, 7.9092e-07
430.6, 7.281e-07
430.8, 6.6745e-07
431.0, 6.1185e-07
431.2, 5.6088e-07
431.4, 5.1416e-07
431.6, 4.7133e-07
431.8, 4.3206e-07
432.0, 3.9607e-07
432.2, 3.6308e-07
432.4, 3.3283e-07
432.6, 3.0511e-07
432.8, 2.7969e-07
433.0, 2.4988e-07
433.2, 2.1699e-07
433.4, 1.8843e-07
433.6, 1.6363e-07
433.8, 1.421e-07
434.0, 1.234e-07
434.2, 1.0716e-07
434.4, 9.3052e-08
434.6, 8.0805e-08
434.8, 7.017e-08
435.0, 3.963e-08
435.2, 4.5912e-08
435.4, 5.3188e-08
435.6, 6.1619e-08
435.8, 7.1385e-08
436.0, 8.2699e-08
436.2, 9.5806e-08
436.4, 1.1099e-07
436.6, 1.2858e-07
436.8, 1.4896e-07
437.0, 1.7257e-07
437.2, 1.6828e-07
437.4, 1.6395e-07
437.6, 1.5974e-07
437.8, 1.5563e-07
438.0, 1.5162e-07
438.2, 1.4773e-07
438.4, 1.4393e-07
438.6, 1.4022e-07
438.8, 1.3662e-07
439.0, 1.331e-07
439.2, 1.186e-07
439.4, 1.042e-07
439.6, 9.1559e-08
439.8, 8.0449e-08
440.0, 7.0687e-08
440.2, 6.2109e-08
440.4, 5.4572e-08
440.6, 4.795e-08
440.8, 4.2132e-08
441.0, 3.7019e-08
441.2, 3.001e-08
441.4, 2.3632e-08
441.6, 1.8609e-08
441.8, 1.4654e-08
442.0, 1.154e-08
442.2, 9.0872e-09
442.4, 7.1559e-09
442.6, 5.635e-09
442.8, 4.4374e-09
443.0, 3.4943e-09
443.2, 3.3192e-09
443.4, 3.5545e-09
443.6, 3.8064e-09
443.8, 4.0762e-09
444.0, 4.3651e-09
444.2, 4.6745e-09
444.4, 5.0058e-09
444.6, 5.3606e-09
444.8, 5.7405e-09
445.0, 6.1474e-09
445.2, 7.1061e-09
445.4, 8.2144e-09
445.6, 9.4954e-09
445.8, 1.0976e-08
446.0, 1.2688e-08
446.2, 1.4667e-08
446.4, 1.6954e-08
446.6, 1.9598e-08
446.8, 2.2655e-08
447.0, 2.6188e-08
447.2, 2.7988e-08
447.4, 2.9888e-08
447.6, 3.1916e-08
447.8, 3.4083e-08
448.0, 3.6396e-08
448.2, 3.8867e-08
448.4, 4.1505e-08
448.6, 4.4323e-08
448.8, 4.7331e-08
449.0, 5.0544e-08
449.2, 4.3651e-08
449.4, 3.6469e-08
449.6, 3.0469e-08
449.8, 2.5456e-08
450.0, 2.1268e-08
450.2, 1.7769e-08
450.4, 1.4845e-08
450.6, 1.2403e-08
450.8, 1.0362e-08
451.0, 8.6574e-09
451.2, 8.2449e-09
451.4, 8.2219e-09
451.6, 8.1989e-09
451.8, 8.176e-09
452.0, 8.1531e-09
452.2, 8.1303e-09
452.4, 8.1075e-09
452.6, 8.0849e-09
452.8, 8.0622e-09
453.0, 8.0397e-09
453.2, 8.6962e-09
453.4, 9.8868e-09
453.6, 1.124e-08
453.8, 1.2779e-08
454.0, 1.4529e-08
454.2, 1.6518e-08
454.4, 1.878e-08
454.6, 2.1351e-08
454.8, 2.4274e-08
455.0, 2.7597e-08
455.2, 2.1823e-08
455.4, 1.7258e-08
455.6, 1.3647e-08
455.8, 1.0792e-08
456.0, 8.5339e-09
456.2, 6.7484e-09
456.4, 5.3365e-09
456.6, 4.22e-09
456.8, 3.3371e-09
457.0, 2.645e-09
457.2, 3.3113e-09
457.4, 4.1454e-09
457.6, 5.1896e-09
457.8, 6.4968e-09
458.0, 8.1334e-09
458.2, 1.0182e-08
458.4, 1.2747e-08
458.6, 1.5958e-08
458.8, 1.9978e-08
459.0, 2.501e-08
459.2, 2.0933e-08
459.4, 1.6627e-08
459.6, 1.3207e-08
459.8, 1.0491e-08
460.0, 8.3329e-09
460.2, 6.6189e-09
460.4, 5.2575e-09
460.6, 4.1761e-09
460.8, 3.3171e-09
461.0, 2.6348e-09
461.2, 2.4939e-09
461.4, 2.4874e-09
461.6, 2.4809e-09
461.8, 2.4744e-09
462.0, 2.4679e-09
462.2, 2.4615e-09
462.4, 2.4551e-09
462.6, 2.4487e-09
462.8, 2.4423e-09
463.0, 2.4359e-09
463.2, 2.8807e-09
463.4, 3.7266e-09
463.6, 4.8208e-09
463.8, 6.2363e-09
464.0, 8.0674e-09
464.2, 1.0436e-08
464.4, 1.35e-08
464.6, 1.7464e-08
464.8, 2.2592e-08
465.0, 2.9226e-08
465.2, 2.4999e-08
465.4, 2.1383e-08
465.6, 1.829e-08
465.8, 1.5644e-08
466.0, 1.3381e-08
466.2, 1.1446e-08
466.4, 9.7902e-09
466.6, 8.3741e-09
466.8, 7.1628e-09
467.0, 6.1268e-09
467.2, 6.0791e-09
467.4, 6.0595e-09
467.6, 6.04e-09
467.8, 6.0205e-09
468.0, 6.0011e-09
468.2, 5.9818e-09
468.4, 5.9626e-09
468.6, 5.9434e-09
468.8, 5.9242e-09
469.0, 5.9052e-09
469.2, 5.8867e-09
469.4, 5.8685e-09
469.6, 5.8503e-09
469.8, 5.8322e-09
470.0, 5.8141e-09
470.2, 5.7961e-09
470.4, 5.7781e-09
470.6, 5.7602e-09
470.8, 5.7423e-09
471.0, 5.7245e-09
471.2, 6.0051e-09
471.4, 6.4102e-09
471.6, 6.8427e-09
471.8, 7.3044e-09
472.0, 7.7971e-09
472.2, 8.3232e-09
472.4, 8.8847e-09
472.6, 9.4841e-09
472.8, 1.0124e-08
473.0, 1.0807e-08
473.2, 1.1405e-08
473.4, 1.1956e-08
473.6, 1.2535e-08
473.8, 1.3141e-08
474.0, 1.3777e-08
474.2, 1.4443e-08
474.4, 1.5142e-08
474.6, 1.5874e-08
474.8, 1.6642e-08
475.0, 1.7447e-08
475.2, 1.8356e-08
475.4, 1.9312e-08
475.6, 2.0318e-08
475.8, 2.1377e-08
476.0, 2.249e-08
476.2, 2.3662e-08
476.4, 2.4894e-08
476.6, 2.6191e-08
476.8, 2.7555e-08
477.0, 2.899e-08
477.2, 2.642e-08
477.4, 2.4042e-08
477.6, 2.1878e-08
477.8, 1.991e-08
478.0, 1.8118e-08
478.2, 1.6487e-08
478.4, 1.5004e-08
478.6, 1.3653e-08
478.8, 1.2425e-08
479.0, 1.1307e-08
479.2, 1.1996e-08
479.4, 1.2997e-08
479.6, 1.4081e-08
479.8, 1.5256e-08
480.0, 1.6529e-08
480.2, 1.7908e-08
480.4, 1.9402e-08
480.6, 2.102e-08
480.8, 2.2774e-08
481.0, 2.4674e-08
481.2, 2.584e-08
481.4, 2.6795e-08
481.6, 2.7786e-08
481.8, 2.8813e-08
482.0, 2.9878e-08
482.2, 3.0983e-08
482.4, 3.2128e-08
482.6, 3.3316e-08
482.8, 3.4548e-08
483.0, 3.5825e-08
483.2, 3.7551e-08
483.4, 3.9565e-08
483.6, 4.1687e-08
483.8, 4.3923e-08
484.0, 4.6279e-08
484.2, 4.8761e-08
484.4, 5.1376e-08
484.6, 5.4132e-08
484.8, 5.7035e-08
485.0, 6.0094e-08
485.2, 6.0693e-08
485.4, 6.1297e-08
485.6, 6.1907e-08
485.8, 6.2524e-08
486.0, 6.3146e-08
486.2, 6.3775e-08
486.4, 6.441e-08
486.6, 6.5052e-08
486.8, 6.5699e-08
487.0, 6.6354e-08
487.2, 6.7595e-08
487.4, 6.8888e-08
487.6, 7.0206e-08
487.8, 7.1549e-08
488.0, 7.2918e-08
488.2, 7.4313e-08
488.4, 7.5734e-08
488.6, 7.7183e-08
488.8, 7.8659e-08
489.0, 8.0164e-08
489.2, 7.9578e-08
489.4, 7.8646e-08
489.6, 7.7724e-08
489.8, 7.6813e-08
490.0, 7.5913e-08
490.2, 7.5023e-08
490.4, 7.4144e-08
490.6, 7.3275e-08
490.8, 7.2416e-08
491.0, 7.1567e-08
491.2, 7.1044e-08
491.4, 7.0626e-08
491.6, 7.0211e-08
491.8, 6.9798e-08
492.0, 6.9388e-08
492.2, 6.898e-08
492.4, 6.8574e-08
492.6, 6.8171e-08
492.8, 6.777e-08
493.0, 6.7372e-08
493.2, 6.765e-08
493.4, 6.8282e-08
493.6, 6.8919e-08
493.8, 6.9562e-08
494.0, 7.0212e-08
494.2, 7.0867e-08
494.4, 7.1529e-08
494.6, 7.2196e-08
494.8, 7.287e-08
495.0, 7.3551e-08
495.2, 7.3995e-08
495.4, 7.4443e-08
495.6, 7.4893e-08
495.8, 7.5346e-08
496.0, 7.5801e-08
496.2, 7.6259e-08
496.4, 7.672e-08
496.6, 7.7184e-08
496.8, 7.7651e-08
497.0, 7.812e-08
497.2, 7.8561e-08
497.4, 7.9002e-08
497.6, 7.9446e-08
497.8, 7.9892e-08
498.0, 8.0341e-08
498.2, 8.0792e-08
498.4, 8.1246e-08
498.6, 8.1702e-08
498.8, 8.2161e-08
499.0, 8.2623e-08
499.2, 8.3415e-08
499.4, 8.4271e-08
499.6, 8.5136e-08
499.8, 8.601e-08
500.0, 8.6893e-08
500.2, 8.7785e-08
500.4, 8.8686e-08
500.6, 8.9596e-08
500.8, 9.0516e-08
501.0, 9.1445e-08
501.2, 9.1888e-08
501.4, 9.2182e-08
501.6, 9.2476e-08
501.8, 9.2771e-08
502.0, 9.3068e-08
502.2, 9.3365e-08
502.4, 9.3663e-08
502.6, 9.3962e-08
502.8, 9.4262e-08
503.0, 9.4563e-08
503.2, 9.5804e-08
503.4, 9.7522e-08
503.6, 9.9271e-08
503.8, 1.0105e-07
504.0, 1.0286e-07
504.2, 1.0471e-07
504.4, 1.0659e-07
504.6, 1.085e-07
504.8, 1.1044e-07
505.0, 1.1243e-07
505.2, 1.1519e-07
505.4, 1.1802e-07
505.6, 1.2093e-07
505.8, 1.239e-07
506.0, 1.2695e-07
506.2, 1.3007e-07
506.4, 1.3327e-07
506.6, 1.3655e-07
506.8, 1.3991e-07
507.0, 1.4335e-07
507.2, 1.415e-07
507.4, 1.3949e-07
507.6, 1.375e-07
507.8, 1.3554e-07
508.0, 1.3361e-07
508.2, 1.3171e-07
508.4, 1.2984e-07
508.6, 1.2799e-07
508.8, 1.2617e-07
509.0, 1.2437e-07
509.2, 1.2824e-07
509.4, 1.3308e-07
509.6, 1.381e-07
509.8, 1.4331e-07
510.0, 1.4871e-07
510.2, 1.5432e-07
510.4, 1.6014e-07
510.6, 1.6619e-07
510.8, 1.7246e-07
511.0, 1.7896e-07
511.2, 1.797e-07
511.4, 1.7886e-07
511.6, 1.7803e-07
511.8, 1.7721e-07
512.0, 1.7639e-07
512.2, 1.7557e-07
512.4, 1.7475e-07
512.6, 1.7394e-07
512.8, 1.7314e-07
513.0, 1.7233e-07
513.2, 1.7115e-07
513.4, 1.6981e-07
513.6, 1.6848e-07
513.8, 1.6716e-07
514.0, 1.6585e-07
514.2, 1.6455e-07
514.4, 1.6326e-07
514.6, 1.6198e-07
514.8, 1.6071e-07
515.0, 1.5945e-07
515.2, 1.5479e-07
515.4, 1.5027e-07
515.6, 1.4588e-07
515.8, 1.4162e-07
516.0, 1.3748e-07
516.2, 1.3346e-07
516.4, 1.2956e-07
516.6, 1.2578e-07
516.8, 1.221e-07
517.0, 1.1854e-07
517.2, 1.2065e-07
517.4, 1.2327e-07
517.6, 1.2594e-07
517.8, 1.2868e-07
518.0, 1.3147e-07
518.2, 1.3432e-07
518.4, 1.3724e-07
518.6, 1.4022e-07
518.8, 1.4326e-07
519.0, 1.4637e-07
519.2, 1.4835e-07
519.4, 1.5012e-07
519.6, 1.5192e-07
519.8, 1.5373e-07
520.0, 1.5557e-07
520.2, 1.5743e-07
520.4, 1.5932e-07
520.6, 1.6122e-07
520.8, 1.6315e-07
521.0, 1.651e-07
521.2, 1.6755e-07
521.4, 1.7019e-07
521.6, 1.7286e-07
521.8, 1.7558e-07
522.0, 1.7835e-07
522.2, 1.8115e-07
522.4, 1.84e-07
522.6, 1.869e-07
522.8, 1.8984e-07
523.0, 1.9283e-07
523.2, 1.9072e-07
523.4, 1.8634e-07
523.6, 1.8207e-07
523.8, 1.7789e-07
524.0, 1.7381e-07
524.2, 1.6982e-07
524.4, 1.6593e-07
524.6, 1.6212e-07
524.8, 1.584e-07
525.0, 1.5477e-07
525.2, 1.5396e-07
525.4, 1.5316e-07
525.6, 1.5236e-07
525.8, 1.5156e-07
526.0, 1.5077e-07
526.2, 1.4998e-07
526.4, 1.492e-07
526.6, 1.4842e-07
526.8, 1.4765e-07
527.0, 1.4688e-07
527.2, 1.4739e-07
527.4, 1.4799e-07
527.6, 1.4859e-07
527.8, 1.492e-07
528.0, 1.4981e-07
528.2, 1.5042e-07
528.4, 1.5103e-07
528.6, 1.5165e-07
528.8, 1.5226e-07
529.0, 1.5288e-07
529.2, 1.5351e-07
529.4, 1.5413e-07
529.6, 1.5552e-07
529.8, 1.5795e-07
530.0, 1.6042e-07
530.2, 1.6293e-07
530.4, 1.6547e-07
530.6, 1.6806e-07
530.8, 1.7068e-07
531.0, 1.7335e-07
531.2, 1.7606e-07
531.4, 1.7881e-07
531.6, 1.8064e-07
531.8, 1.8075e-07
532.0, 1.8085e-07
532.2, 1.8096e-07
532.4, 1.8107e-07
532.6, 1.8117e-07
532.8, 1.8128e-07
533.0, 1.8138e-07
533.2, 1.8149e-07
533.4, 1.816e-07
533.6, 1.8219e-07
533.8, 1.8405e-07
534.0, 1.8593e-07
534.2, 1.8783e-07
534.4, 1.8975e-07
534.6, 1.9169e-07
534.8, 1.9364e-07
535.0, 1.9562e-07
535.2, 1.9762e-07
535.4, 1.9964e-07
535.6, 2.0088e-07
535.8, 2.0085e-07
536.0, 2.0083e-07
536.2, 2.008e-07
536.4, 2.0077e-07
536.6, 2.0075e-07
536.8, 2.0072e-07
537.0, 2.007e-07
537.2, 2.0067e-07
537.4, 2.0064e-07
537.6, 2.0062e-07
537.8, 2.0059e-07
538.0, 2.0056e-07
538.2, 1.7608e-07
538.4, 1.4639e-07
538.6, 1.2171e-07
538.8, 1.0119e-07
539.0, 8.4135e-08
539.2, 6.9951e-08
539.4, 5.8158e-08
539.6, 4.8354e-08
539.8, 4.0202e-08
540.0, 3.3424e-08
540.2, 4.6028e-08
540.4, 1.6922e-08
540.6, 2.2222e-08
540.8, 8.3229e-08
541.0, 3.383e-08
541.2, 6.4382e-08
541.4, 1.9616e-08
541.6, 4.3518e-08
541.8, 4.4198e-08
542.0, 5.5632e-08
542.2, 6.1683e-08
542.4, 5.652e-08
542.6, 6.531e-08
542.8, 3.5683e-08
543.0, 1.1858e-08
543.2, 1.0912e-08
543.4, 1.088e-08
543.6, 1.5576e-08
543.8, 2.834e-08
544.0, 1.1798e-08
544.2, 3.3128e-08
544.4, 1.266e-08
544.6, 1.0764e-08
544.8, 2.8139e-08
545.0, 4.2849e-08
545.2, 1.2926e-08
545.4, 7.4392e-08
545.6, 3.7863e-08
545.8, 1.2891e-08
546.0, 1.6964e-08
546.2, 2.5822e-08
546.4, 2.4464e-08
546.6, 1.1064e-08
546.8, 1.919e-08
547.0, 5.1368e-08
547.2, 1.6286e-08
547.4, 3.2484e-08
547.6, 6.8429e-08
547.8, 6.2613e-08
548.0, 3.2087e-08
548.2, 4.0308e-08
548.4, 4.1922e-08
548.6, 5.6693e-08
548.8, 6.9781e-08
549.0, 6.0342e-08
549.2, 3.7772e-08
549.4, 2.1699e-08
549.6, 5.4638e-08
549.8, 4.2217e-08
550.0, 5.5846e-08
550.2, 7.3944e-08
550.4, 3.862e-08
550.6, 1.3508e-08
550.8, 6.3591e-08
551.0, 4.0139e-08
551.2, 3.2495e-08
551.4, 1.6503e-08
551.6, 1.0568e-08
551.8, 1.9142e-08
552.0, 7.1685e-08
552.2, 1.368e-08
552.4, 3.9015e-08
552.6, 6.2709e-08
552.8, 2.1936e-08
553.0, 1.971e-08
553.2, 4.657e-08
553.4, 6.2152e-08
553.6, 4.4921e-08
553.8, 2.7095e-08
554.0, 1.872e-08
554.2, 1.8802e-08
554.4, 1.5777e-08
554.6, 1.4978e-08
554.8, 6.1886e-08
555.0, 5.3815e-08
555.2, 6.304e-08
555.4, 7.1296e-08
555.6, 2.9457e-08
555.8, 1.03e-08
556.0, 1.3994e-08
556.2, 6.548e-08
556.4, 1.6723e-08
556.6, 2.9575e-08
556.8, 5.11e-08
557.0, 4.6226e-08
557.2, 7.4817e-08
557.4, 5.0028e-08
557.6, 1.2065e-08
557.8, 3.1878e-08
558.0, 5.125e-08
558.2, 5.4023e-08
558.4, 4.027e-08
558.6, 1.6579e-08
558.8, 1.1032e-08
559.0, 1.9144e-08
559.2, 5.85e-08
559.4, 9.2312e-08
559.6, 8.4562e-08
559.8, 3.9007e-08
560.0, 1.0289e-08
560.2, 1.1337e-08
560.4, 4.0918e-08
560.6, 3.691e-08
560.8, 4.803e-08
561.0, 7.8118e-08
561.2, 5.9957e-08
561.4, 3.8839e-08
561.6, 3.1149e-08
561.8, 3.913e-08
562.0, 3.4726e-08
562.2, 4.8248e-08
562.4, 7.1113e-08
562.6, 3.3576e-08
562.8, 5.4794e-08
563.0, 7.1565e-08
563.2, 3.777e-08
563.4, 3.0924e-08
563.6, 4.1732e-08
563.8, 7.4053e-08
564.0, 6.7621e-08
564.2, 2.0549e-08
564.4, 2.0497e-08
564.6, 5.0455e-08
564.8, 8.5848e-08
565.0, 6.1291e-08
565.2, 2.1052e-08
565.4, 2.9665e-08
565.6, 8.2639e-08
565.8, 9.8286e-08
566.0, 3.3826e-08
566.2, 3.6295e-08
566.4, 7.9249e-08
566.6, 1.0841e-07
566.8, 8.6932e-08
567.0, 6.1582e-08
567.2, 1.0696e-07
567.4, 1.3222e-07
567.6, 6.1048e-08
567.8, 3.1294e-08
568.0, 1.4675e-07
568.2, 4.7965e-08
568.4, 5.0753e-08
568.6, 6.6401e-08
568.8, 7.6424e-08
569.0, 8.439e-08
569.2, 8.5606e-08
569.4, 7.0114e-08
569.6, 5.7529e-08
569.8, 5.0581e-08
570.0, 8.6629e-08
570.2, 8.1992e-08
570.4, 3.4098e-08
570.6, 1.1292e-08
570.8, 1.9586e-08
571.0, 8.1729e-08
571.2, 1.0933e-07
571.4, 1.105e-07
571.6, 1.2978e-07
571.8, 1.3954e-07
572.0, 1.2187e-07
572.2, 1.3762e-07
572.4, 1.5873e-07
572.6, 1.9358e-07
572.8, 2.378e-07
573.0, 2.7622e-07
573.2, 3.2425e-07
573.4, 4.1851e-07
573.6, 5.8122e-07
573.8, 7.7907e-07
574.0, 9.7608e-07
574.2, 1.4056e-06
574.4, 2.0753e-06
574.6, 3.0534e-06
574.8, 4.5862e-06
575.0, 7.0831e-06
575.2, 1.0928e-05
575.4, 1.6105e-05
575.6, 2.6483e-05
575.8, 4.1592e-05
576.0, 6.8895e-05
576.2, 1.1524e-04
576.4, 1.9884e-04
576.6, 3.5145e-04
576.8, 7.3097e-04
577.0, 0.0013
577.2, 0.00237
577.4, 0.00456
577.6, 0.00922
577.8, 0.01963
578.0, 0.04407
578.2, 0.1098
578.4, 0.24508
578.6, 0.48028
578.8, 0.73495
579.0, 0.8955
579.2, 0.95451
579.4, 0.97047
579.6, 0.97891
579.8, 0.98357
580.0, 0.98476
580.2, 0.98406
580.4, 0.98334
580.6, 0.98128
580.8, 0.98243
581.0, 0.98337
581.2, 0.98535
581.4, 0.98825
581.6, 0.98942
581.8, 0.98977
582.0, 0.98922
582.2, 0.98816
582.4, 0.98663
582.6, 0.98548
582.8, 0.98544
583.0, 0.9851
583.2, 0.98669
583.4, 0.98891
583.6, 0.98964
583.8, 0.99145
584.0, 0.99216
584.2, 0.99293
584.4, 0.99321
584.6, 0.9933
584.8, 0.99245
585.0, 0.99086
585.2, 0.98941
585.4, 0.98783
585.6, 0.98716
585.8, 0.98594
586.0, 0.98595
586.2, 0.98684
586.4, 0.98767
586.6, 0.9894
586.8, 0.99028
587.0, 0.99162
587.2, 0.99211
587.4, 0.99303
587.6, 0.99362
587.8, 0.9932
588.0, 0.9932
588.2, 0.99265
588.4, 0.99101
588.6, 0.99008
588.8, 0.98946
589.0, 0.98918
589.2, 0.98896
589.4, 0.98873
589.6, 0.98806
589.8, 0.98892
590.0, 0.98957
590.2, 0.98981
590.4, 0.991
590.6, 0.99193
590.8, 0.99426
591.0, 0.99382
591.2, 0.99389
591.4, 0.99405
591.6, 0.99499
591.8, 0.99373
592.0, 0.99117
592.2, 0.99186
592.4, 0.98845
592.6, 0.98784
592.8, 0.98707
593.0, 0.98457
593.2, 0.98203
593.4, 0.98073
593.6, 0.98115
593.8, 0.98034
594.0, 0.97995
594.2, 0.98025
594.4, 0.98099
594.6, 0.9812
594.8, 0.98221
595.0, 0.98418
595.2, 0.98493
595.4, 0.98666
595.6, 0.98844
595.8, 0.98913
596.0, 0.99006
596.2, 0.99033
596.4, 0.99066
596.6, 0.99192
596.8, 0.99162
597.0, 0.99084
597.2, 0.99046
597.4, 0.99036
597.6, 0.98915
597.8, 0.98778
598.0, 0.98716
598.2, 0.98669
598.4, 0.98514
598.6, 0.98397
598.8, 0.98367
599.0, 0.98335
599.2, 0.98309
599.4, 0.98345
599.6, 0.9832
599.8, 0.98365
600.0, 0.98372
600.2, 0.98287
600.4, 0.98259
600.6, 0.98341
600.8, 0.98338
601.0, 0.98304
601.2, 0.98409
601.4, 0.98401
601.6, 0.98495
601.8, 0.98498
602.0, 0.98431
602.2, 0.98379
602.4, 0.98389
602.6, 0.98408
602.8, 0.98393
603.0, 0.98357
603.2, 0.98348
603.4, 0.98328
603.6, 0.98382
603.8, 0.9847
604.0, 0.98455
604.2, 0.98468
604.4, 0.98543
604.6, 0.98583
604.8, 0.98662
605.0, 0.98676
605.2, 0.98785
605.4, 0.98798
605.6, 0.98906
605.8, 0.98954
606.0, 0.99009
606.2, 0.98902
606.4, 0.98936
606.6, 0.98994
606.8, 0.98916
607.0, 0.98887
607.2, 0.98852
607.4, 0.98731
607.6, 0.98645
607.8, 0.98441
608.0, 0.98496
608.2, 0.9832
608.4, 0.98212
608.6, 0.98167
608.8, 0.9801
609.0, 0.97862
609.2, 0.97802
609.4, 0.97832
609.6, 0.97744
609.8, 0.97716
610.0, 0.97736
610.2, 0.97833
610.4, 0.97891
610.6, 0.97834
610.8, 0.97976
611.0, 0.98105
611.2, 0.98189
611.4, 0.9835
611.6, 0.98483
611.8, 0.98555
612.0, 0.9871
612.2, 0.98752
612.4, 0.98837
612.6, 0.98874
612.8, 0.98771
613.0, 0.98698
613.2, 0.98685
613.4, 0.98617
613.6, 0.98311
613.8, 0.98207
614.0, 0.98088
614.2, 0.98005
614.4, 0.97859
614.6, 0.97627
614.8, 0.97395
615.0, 0.97284
615.2, 0.97069
615.4, 0.96864
615.6, 0.96779
615.8, 0.96701
616.0, 0.96625
616.2, 0.96667
616.4, 0.96653
616.6, 0.9661
616.8, 0.96696
617.0, 0.96882
617.2, 0.97077
617.4, 0.97142
617.6, 0.97286
617.8, 0.97477
618.0, 0.97685
618.2, 0.9777
618.4, 0.98085
618.6, 0.98224
618.8, 0.98383
619.0, 0.98579
619.2, 0.98636
619.4, 0.98659
619.6, 0.98613
619.8, 0.98649
620.0, 0.98582
620.2, 0.98483
620.4, 0.98268
620.6, 0.98171
620.8, 0.98059
621.0, 0.97905
621.2, 0.97666
621.4, 0.97513
621.6, 0.97295
621.8, 0.96997
622.0, 0.96841
622.2, 0.96707
622.4, 0.96681
622.6, 0.96531
622.8, 0.96516
623.0, 0.96494
623.2, 0.96366
623.4, 0.96402
623.6, 0.96501
623.8, 0.96682
624.0, 0.96887
624.2, 0.97056
624.4, 0.97233
624.6, 0.97342
624.8, 0.97572
625.0, 0.9783
625.2, 0.98039
625.4, 0.98061
625.6, 0.98172
625.8, 0.98248
626.0, 0.98287
626.2, 0.98281
626.4, 0.9837
626.6, 0.98288
626.8, 0.98218
627.0, 0.98154
627.2, 0.98005
627.4, 0.97902
627.6, 0.97736
627.8, 0.97681
628.0, 0.97686
628.2, 0.97586
628.4, 0.97486
628.6, 0.97576
628.8, 0.97592
629.0, 0.97646
629.2, 0.97658
629.4, 0.97767
629.6, 0.97957
629.8, 0.98098
630.0, 0.98145
630.2, 0.9836
630.4, 0.98375
630.6, 0.9845
630.8, 0.98536
631.0, 0.98559
631.2, 0.98461
631.4, 0.98368
631.6, 0.98261
631.8, 0.98238
632.0, 0.98043
632.2, 0.97847
632.4, 0.97644
632.6, 0.97656
632.8, 0.97589
633.0, 0.97551
633.2, 0.9757
633.4, 0.97579
633.6, 0.97531
633.8, 0.97629
634.0, 0.97458
634.2, 0.97355
634.4, 0.97047
634.6, 0.9648
634.8, 0.95804
635.0, 0.94875
635.2, 0.9385
635.4, 0.92749
635.6, 0.91686
635.8, 0.90606
636.0, 0.89748
636.2, 0.89522
636.4, 0.89784
636.6, 0.90673
636.8, 0.92077
637.0, 0.93373
637.2, 0.93404
637.4, 0.90575
637.6, 0.82353
637.8, 0.68493
638.0, 0.51964
638.2, 0.36323
638.4, 0.24267
638.6, 0.15899
638.8, 0.09746
639.0, 0.06373
639.2, 0.04235
639.4, 0.02859
639.6, 0.01968
639.8, 0.01372
640.0, 0.00975
640.2, 0.00711
640.4, 0.00514
640.6, 0.00378
640.8, 0.00279
641.0, 0.00208
641.2, 0.00157
641.4, 0.0012
641.6, 8.5794e-04
641.8, 6.6158e-04
642.0, 5.0999e-04
642.2, 3.9856e-04
642.4, 3.1281e-04
642.6, 2.4847e-04
642.8, 1.9558e-04
643.0, 1.6176e-04
643.2, 1.3015e-04
643.4, 1.0425e-04
643.6, 8.4014e-05
643.8, 6.8863e-05
644.0, 5.5824e-05
644.2, 4.5549e-05
644.4, 3.7204e-05
644.6, 3.0255e-05
644.8, 2.5279e-05
645.0, 2.1097e-05
645.2, 1.7599e-05
645.4, 1.4649e-05
645.6, 1.2193e-05
645.8, 1.0135e-05
646.0, 8.3869e-06
646.2, 7.1809e-06
646.4, 5.9432e-06
646.6, 5.1488e-06
646.8, 4.3632e-06
647.0, 3.6035e-06
647.2, 3.0691e-06
647.4, 2.5711e-06
647.6, 2.1532e-06
647.8, 1.9526e-06
648.0, 1.7687e-06
648.2, 1.5219e-06
648.4, 1.2648e-06
648.6, 1.1778e-06
648.8, 1.1071e-06
649.0, 9.1328e-07
649.2, 7.5256e-07
649.4, 6.7716e-07
649.6, 6.1168e-07
649.8, 5.2168e-07
650.0, 4.7105e-07
650.2, 4.6365e-07
650.4, 3.705e-07
650.6, 3.2503e-07
650.8, 2.9678e-07
651.0, 2.5593e-07
651.2, 1.9937e-07
651.4, 2.2016e-07
651.6, 2.5352e-07
651.8, 2.3811e-07
652.0, 1.9788e-07
652.2, 1.7046e-07
652.4, 1.3472e-07
652.6, 7.4609e-08
652.8, 5.722e-08
653.0, 1.2293e-07
653.2, 1.2305e-07
653.4, 1.2888e-07
653.6, 1.1536e-07
653.8, 8.1651e-08
654.0, 4.8121e-08
654.2, 9.5318e-08
654.4, 8.6827e-08
654.6, 1.0749e-07
654.8, 1.0942e-07
655.0, 4.4014e-08
655.2, 1.3212e-08
655.4, 6.3013e-08
655.6, 7.4557e-08
655.8, 1.1045e-07
656.0, 7.0265e-08
656.2, 7.1157e-08
656.4, 8.338e-08
656.6, 6.8491e-08
656.8, 3.1193e-08
657.0, 6.2001e-08
657.2, 1.1297e-07
657.4, 6.8672e-08
657.6, 5.1829e-08
657.8, 5.6101e-08
658.0, 7.2869e-08
658.2, 9.8829e-08
658.4, 6.9045e-08
658.6, 1.302e-07
658.8, 2.5118e-08
659.0, 2.1463e-08
659.2, 3.6318e-08
659.4, 9.5147e-09
659.6, 9.53e-09
659.8, 2.9207e-08
660.0, 5.2792e-08
660.2, 6.8182e-08
660.4, 6.3296e-08
660.6, 3.4393e-08
660.8, 9.6144e-09
661.0, 2.9191e-08
661.2, 4.0777e-08
661.4, 6.3534e-08
661.6, 2.4732e-08
661.8, 1.2267e-08
662.0, 2.1389e-08
662.2, 3.7342e-08
662.4, 1.3665e-08
662.6, 3.9858e-08
662.8, 6.5419e-08
663.0, 5.8348e-08
663.2, 5.8397e-08
663.4, 6.3485e-08
663.6, 1.0315e-07
663.8, 3.059e-08
664.0, 3.7561e-08
664.2, 1.9728e-08
664.4, 2.113e-08
664.6, 4.2295e-08
664.8, 3.0409e-08
665.0, 4.58e-08
665.2, 3.4365e-08
665.4, 1.9807e-08
665.6, 2.8154e-08
665.8, 3.2968e-08
666.0, 2.1254e-08
666.2, 2.9461e-08
666.4, 4.4258e-08
666.6, 5.9574e-08
666.8, 6.4829e-08
667.0, 7.775e-08
667.2, 3.7924e-08
667.4, 1.445e-08
667.6, 6.7634e-08
667.8, 9.0156e-08
668.0, 2.3569e-08
668.2, 1.4969e-08
668.4, 4.3481e-08
668.6, 5.2663e-08
668.8, 3.6782e-08
669.0, 1.4465e-08
669.2, 1.4452e-08
669.4, 5.1413e-08
669.6, 2.1659e-08
669.8, 5.8639e-08
670.0, 4.0285e-08
670.2, 2.2994e-08
670.4, 6.26e-08
670.6, 1.6093e-08
670.8, 2.7728e-08
671.0, 6.5723e-08
671.2, 6.1098e-08
671.4, 3.5036e-08
671.6, 1.1623e-08
671.8, 5.5504e-08
672.0, 8.1466e-08
672.2, 5.1155e-08
672.4, 3.7707e-08
672.6, 6.0095e-08
672.8, 4.5482e-08
673.0, 2.0517e-08
673.2, 4.9391e-08
673.4, 7.0755e-08
673.6, 3.3524e-08
673.8, 6.7676e-08
674.0, 5.9942e-08
674.2, 5.5344e-08
674.4, 7.115e-08
674.6, 9.5221e-08
674.8, 4.9457e-08
675.0, 7.2908e-08
675.2, 2.322e-07
675.4, 2.2997e-07
675.6, 2.2777e-07
675.8, 2.2559e-07
676.0, 2.2343e-07
676.2, 2.2129e-07
676.4, 2.1917e-07
676.6, 2.1707e-07
676.8, 2.1499e-07
677.0, 2.1293e-07
677.2, 2.1204e-07
677.4, 2.1146e-07
677.6, 2.1089e-07
677.8, 2.1031e-07
678.0, 2.0974e-07
678.2, 2.0917e-07
678.4, 2.086e-07
678.6, 2.0803e-07
678.8, 2.0746e-07
679.0, 2.069e-07
679.2, 2.0491e-07
679.4, 2.0261e-07
679.6, 2.0033e-07
679.8, 1.9808e-07
680.0, 1.9586e-07
680.2, 1.9366e-07
680.4, 1.9148e-07
680.6, 1.8933e-07
680.8, 1.872e-07
681.0, 1.851e-07
681.2, 1.8298e-07
681.4, 1.8089e-07
681.6, 1.7881e-07
681.8, 1.7676e-07
682.0, 1.7474e-07
682.2, 1.7273e-07
682.4, 1.7075e-07
682.6, 1.688e-07
682.8, 1.6686e-07
683.0, 1.6495e-07
683.2, 1.6283e-07
683.4, 1.6069e-07
683.6, 1.5858e-07
683.8, 1.565e-07
684.0, 1.5445e-07
684.2, 1.5243e-07
684.4, 1.5043e-07
684.6, 1.4845e-07
684.8, 1.4651e-07
685.0, 1.4459e-07
685.2, 1.4228e-07
685.4, 1.3995e-07
685.6, 1.3766e-07
685.8, 1.3541e-07
686.0, 1.3319e-07
686.2, 1.3102e-07
686.4, 1.2887e-07
686.6, 1.2676e-07
686.8, 1.2469e-07
687.0, 1.2265e-07
687.2, 1.2093e-07
687.4, 1.1933e-07
687.6, 1.1774e-07
687.8, 1.1618e-07
688.0, 1.1463e-07
688.2, 1.1311e-07
688.4, 1.1161e-07
688.6, 1.1012e-07
688.8, 1.0866e-07
689.0, 1.0722e-07
689.2, 1.065e-07
689.4, 1.0597e-07
689.6, 1.0543e-07
689.8, 1.049e-07
690.0, 1.0438e-07
690.2, 1.0385e-07
690.4, 1.0333e-07
690.6, 1.0281e-07
690.8, 1.023e-07
691.0, 1.0179e-07
691.2, 1.011e-07
691.4, 1.0038e-07
691.6, 9.9665e-08
691.8, 9.8956e-08
692.0, 9.8252e-08
692.2, 9.7553e-08
692.4, 9.6859e-08
692.6, 9.617e-08
692.8, 9.5486e-08
693.0, 9.4807e-08
693.2, 9.6481e-08
693.4, 9.8562e-08
693.6, 1.0069e-07
693.8, 1.0286e-07
694.0, 1.0508e-07
694.2, 1.0735e-07
694.4, 1.0966e-07
694.6, 1.1203e-07
694.8, 1.1445e-07
695.0, 1.1692e-07
695.2, 1.1952e-07
695.4, 1.222e-07
695.6, 1.2493e-07
695.8, 1.2773e-07
696.0, 1.3059e-07
696.2, 1.3351e-07
696.4, 1.365e-07
696.6, 1.3955e-07
696.8, 1.4268e-07
697.0, 1.4587e-07
697.2, 1.4628e-07
697.4, 1.4593e-07
697.6, 1.4557e-07
697.8, 1.4521e-07
698.0, 1.4486e-07
698.2, 1.445e-07
698.4, 1.4415e-07
698.6, 1.4379e-07
698.8, 1.4344e-07
699.0, 1.4309e-07
699.2, 1.4196e-07
699.4, 1.4068e-07
699.6, 1.3941e-07
699.8, 1.3815e-07
700.0, 1.3691e-07
700.2, 1.3567e-07
700.4, 1.3445e-07
700.6, 1.3323e-07
700.8, 1.3203e-07
701.0, 1.3084e-07
701.2, 1.2862e-07
701.4, 1.2628e-07
701.6, 1.2397e-07
701.8, 1.2171e-07
702.0, 1.1949e-07
702.2, 1.1731e-07
702.4, 1.1517e-07
702.6, 1.1307e-07
702.8, 1.1101e-07
703.0, 1.0898e-07
703.2, 1.0921e-07
703.4, 1.097e-07
703.6, 1.102e-07
703.8, 1.1069e-07
704.0, 1.1119e-07
704.2, 1.1169e-07
704.4, 1.122e-07
704.6, 1.127e-07
704.8, 1.1321e-07
705.0, 1.1372e-07
705.2, 1.1115e-07
705.4, 1.0815e-07
705.6, 1.0524e-07
705.8, 1.024e-07
706.0, 9.9637e-08
706.2, 9.6951e-08
706.4, 9.4337e-08
706.6, 9.1793e-08
706.8, 8.9318e-08
707.0, 8.6909e-08
707.2, 8.6634e-08
707.4, 8.7022e-08
707.6, 8.7411e-08
707.8, 8.7802e-08
708.0, 8.8195e-08
708.2, 8.8589e-08
708.4, 8.8986e-08
708.6, 8.9384e-08
708.8, 8.9784e-08
709.0, 9.0185e-08
709.2, 9.0387e-08
709.4, 9.0539e-08
709.6, 9.069e-08
709.8, 9.0843e-08
710.0, 9.0995e-08
710.2, 9.1148e-08
710.4, 9.13e-08
710.6, 9.1454e-08
710.8, 9.1607e-08
711.0, 9.1761e-08
711.2, 9.1482e-08
711.4, 9.1126e-08
711.6, 9.0771e-08
711.8, 9.0417e-08
712.0, 9.0065e-08
712.2, 8.9714e-08
712.4, 8.9364e-08
712.6, 8.9016e-08
712.8, 8.8669e-08
713.0, 8.8323e-08
713.2, 8.6021e-08
713.4, 8.3546e-08
713.6, 8.1142e-08
713.8, 7.8807e-08
714.0, 7.6539e-08
714.2, 7.4337e-08
714.4, 7.2198e-08
714.6, 7.012e-08
714.8, 6.8102e-08
715.0, 6.6143e-08
715.2, 6.4371e-08
715.4, 6.2667e-08
715.6, 6.1008e-08
715.8, 5.9393e-08
716.0, 5.7821e-08
716.2, 5.629e-08
716.4, 5.48e-08
716.6, 5.335e-08
716.8, 5.1937e-08
717.0, 5.0563e-08
717.2, 5.0483e-08
717.4, 5.0786e-08
717.6, 5.109e-08
717.8, 5.1396e-08
718.0, 5.1704e-08
718.2, 5.2014e-08
718.4, 5.2325e-08
718.6, 5.2639e-08
718.8, 5.2954e-08
719.0, 5.3272e-08
719.2, 5.3105e-08
719.4, 5.2832e-08
719.6, 5.2562e-08
719.8, 5.2292e-08
720.0, 5.2024e-08
720.2, 5.1758e-08
720.4, 5.1492e-08
720.6, 5.1229e-08
720.8, 5.0966e-08
721.0, 5.0705e-08
721.2, 5.0899e-08
721.4, 5.1162e-08
721.6, 5.1426e-08
721.8, 5.1691e-08
722.0, 5.1958e-08
722.2, 5.2227e-08
722.4, 5.2497e-08
722.6, 5.2768e-08
722.8, 5.304e-08
723.0, 5.3314e-08
723.2, 5.4005e-08
723.4, 5.4741e-08
723.6, 5.5487e-08
723.8, 5.6244e-08
724.0, 5.701e-08
724.2, 5.7787e-08
724.4, 5.8575e-08
724.6, 5.9374e-08
724.8, 6.0183e-08
725.0, 6.1003e-08
725.2, 6.3159e-08
725.4, 6.5656e-08
725.6, 6.8252e-08
725.8, 7.095e-08
726.0, 7.3754e-08
726.2, 7.667e-08
726.4, 7.9701e-08
726.6, 8.2852e-08
726.8, 8.6127e-08
727.0, 8.9532e-08
727.2, 8.8841e-08
727.4, 8.6653e-08
727.6, 8.4519e-08
727.8, 8.2437e-08
728.0, 8.0407e-08
728.2, 7.8426e-08
728.4, 7.6494e-08
728.6, 7.461e-08
728.8, 7.2772e-08
729.0, 7.098e-08
729.2, 6.7826e-08
729.4, 6.4449e-08
729.6, 6.124e-08
729.8, 5.8191e-08
730.0, 5.5293e-08
730.2, 5.254e-08
730.4, 4.9924e-08
730.6, 4.7438e-08
730.8, 4.5076e-08
731.0, 4.2832e-08
731.2, 4.2984e-08
731.4, 4.3587e-08
731.6, 4.4199e-08
731.8, 4.4819e-08
732.0, 4.5448e-08
732.2, 4.6086e-08
732.4, 4.6732e-08
732.6, 4.7388e-08
732.8, 4.8053e-08
733.0, 4.8727e-08
733.2, 4.6633e-08
733.4, 4.4342e-08
733.6, 4.2164e-08
733.8, 4.0093e-08
734.0, 3.8123e-08
734.2, 3.6251e-08
734.4, 3.447e-08
734.6, 3.2777e-08
734.8, 3.1167e-08
735.0, 2.9636e-08
735.2, 2.9671e-08
735.4, 3.0034e-08
735.6, 3.0401e-08
735.8, 3.0773e-08
736.0, 3.1149e-08
736.2, 3.153e-08
736.4, 3.1915e-08
736.6, 3.2305e-08
736.8, 3.27e-08
737.0, 3.31e-08
737.2, 3.4769e-08
737.4, 3.7094e-08
737.6, 3.9573e-08
737.8, 4.2219e-08
738.0, 4.5041e-08
738.2, 4.8052e-08
738.4, 5.1265e-08
738.6, 5.4692e-08
738.8, 5.8348e-08
739.0, 6.2249e-08
739.2, 6.8009e-08
739.4, 7.4846e-08
739.6, 8.2371e-08
739.8, 9.0653e-08
740.0, 9.9767e-08
740.2, 1.098e-07
740.4, 1.2084e-07
740.6, 1.3299e-07
740.8, 1.4636e-07
741.0, 1.6107e-07
741.2, 1.7013e-07
741.4, 1.782e-07
741.6, 1.8665e-07
741.8, 1.955e-07
742.0, 2.0477e-07
742.2, 2.1448e-07
742.4, 2.2465e-07
742.6, 2.353e-07
742.8, 2.4645e-07
743.0, 2.5814e-07
743.2, 2.4077e-07
743.4, 2.2154e-07
743.6, 2.0384e-07
743.8, 1.8756e-07
744.0, 1.7257e-07
744.2, 1.5879e-07
744.4, 1.461e-07
744.6, 1.3443e-07
744.8, 1.2369e-07
745.0, 1.1381e-07
745.2, 1.0695e-07
745.4, 1.0094e-07
745.6, 9.528e-08
745.8, 8.9933e-08
746.0, 8.4886e-08
746.2, 8.0122e-08
746.4, 7.5626e-08
746.6, 7.1382e-08
746.8, 6.7376e-08
747.0, 6.3595e-08
747.2, 6.1632e-08
747.4, 6.0377e-08
747.6, 5.9147e-08
747.8, 5.7943e-08
748.0, 5.6763e-08
748.2, 5.5607e-08
748.4, 5.4474e-08
748.6, 5.3365e-08
748.8, 5.2278e-08
749.0, 5.1214e-08
749.2, 5.0522e-08
749.4, 4.9941e-08
749.6, 4.9366e-08
749.8, 4.8798e-08
750.0, 4.8236e-08
750.2, 4.7681e-08
750.4, 4.7132e-08
750.6, 4.659e-08
750.8, 4.6054e-08
751.0, 4.5524e-08
751.2, 4.579e-08
751.4, 4.6205e-08
751.6, 4.6624e-08
751.8, 4.7046e-08
752.0, 4.7473e-08
752.2, 4.7903e-08
752.4, 4.8337e-08
752.6, 4.8775e-08
752.8, 4.9218e-08
753.0, 4.9664e-08
753.2, 5.0978e-08
753.4, 5.2406e-08
753.6, 5.3873e-08
753.8, 5.5381e-08
754.0, 5.6932e-08
754.2, 5.8526e-08
754.4, 6.0165e-08
754.6, 6.1849e-08
754.8, 6.3581e-08
755.0, 6.5361e-08
755.2, 7.0545e-08
755.4, 7.6985e-08
755.6, 8.4014e-08
755.8, 9.1685e-08
756.0, 1.0006e-07
756.2, 1.0919e-07
756.4, 1.1916e-07
756.6, 1.3004e-07
756.8, 1.4191e-07
757.0, 1.5487e-07
757.2, 1.7046e-07
757.4, 1.883e-07
757.6, 2.0801e-07
757.8, 2.2978e-07
758.0, 2.5382e-07
758.2, 2.8039e-07
758.4, 3.0973e-07
758.6, 3.4215e-07
758.8, 3.7795e-07
759.0, 4.1751e-07
759.2, 4.3391e-07
759.4, 4.4326e-07
759.6, 4.5281e-07
759.8, 4.6257e-07
760.0, 4.7254e-07
760.2, 4.8272e-07
760.4, 4.9312e-07
760.6, 5.0375e-07
760.8, 5.1461e-07
761.0, 5.257e-07
761.2, 4.9214e-07
761.4, 4.5396e-07
761.6, 4.1874e-07
761.8, 3.8626e-07
762.0, 3.5629e-07
762.2, 3.2865e-07
762.4, 3.0315e-07
762.6, 2.7963e-07
762.8, 2.5794e-07
763.0, 2.3793e-07
763.2, 2.2055e-07
763.4, 2.0452e-07
763.6, 1.8964e-07
763.8, 1.7586e-07
764.0, 1.6307e-07
764.2, 1.5121e-07
764.4, 1.4022e-07
764.6, 1.3002e-07
764.8, 1.2057e-07
765.0, 1.118e-07
765.2, 1.1031e-07
765.4, 1.1032e-07
765.6, 1.1034e-07
765.8, 1.1035e-07
766.0, 1.1037e-07
766.2, 1.1038e-07
766.4, 1.104e-07
766.6, 1.1042e-07
766.8, 1.1043e-07
767.0, 1.1045e-07
767.2, 1.0892e-07
767.4, 1.0677e-07
767.6, 1.0467e-07
767.8, 1.026e-07
768.0, 1.0058e-07
768.2, 9.8594e-08
768.4, 9.6649e-08
768.6, 9.4743e-08
768.8, 9.2874e-08
769.0, 9.1041e-08
769.2, 9.4072e-08
769.4, 9.8658e-08
769.6, 1.0347e-07
769.8, 1.0851e-07
770.0, 1.138e-07
770.2, 1.1935e-07
770.4, 1.2517e-07
770.6, 1.3127e-07
770.8, 1.3767e-07
771.0, 1.4438e-07
771.2, 1.5473e-07
771.4, 1.6639e-07
771.6, 1.7892e-07
771.8, 1.924e-07
772.0, 2.0689e-07
772.2, 2.2248e-07
772.4, 2.3923e-07
772.6, 2.5725e-07
772.8, 2.7663e-07
773.0, 2.9747e-07
773.2, 3.203e-07
773.4, 3.449e-07
773.6, 3.7139e-07
773.8, 3.9991e-07
774.0, 4.3063e-07
774.2, 4.6371e-07
774.4, 4.9932e-07
774.6, 5.3767e-07
774.8, 5.7897e-07
775.0, 6.2344e-07
775.2, 6.044e-07
775.4, 5.7348e-07
775.6, 5.4414e-07
775.8, 5.1629e-07
776.0, 4.8988e-07
776.2, 4.6481e-07
776.4, 4.4103e-07
776.6, 4.1847e-07
776.8, 3.9706e-07
777.0, 3.7674e-07
777.2, 3.4433e-07
777.4, 3.0969e-07
777.6, 2.7854e-07
777.8, 2.5052e-07
778.0, 2.2532e-07
778.2, 2.0266e-07
778.4, 1.8227e-07
778.6, 1.6394e-07
778.8, 1.4745e-07
779.0, 1.3261e-07
779.2, 1.2185e-07
779.4, 1.1262e-07
779.6, 1.0409e-07
779.8, 9.6203e-08
780.0, 8.8915e-08
780.2, 8.2179e-08
780.4, 7.5953e-08
780.6, 7.0199e-08
780.8, 6.4881e-08
781.0, 5.9966e-08
781.2, 5.7166e-08
781.4, 5.4739e-08
781.6, 5.2415e-08
781.8, 5.019e-08
782.0, 4.8059e-08
782.2, 4.6018e-08
782.4, 4.4065e-08
782.6, 4.2194e-08
782.8, 4.0402e-08
783.0, 3.8687e-08
783.2, 3.8333e-08
783.4, 3.8022e-08
783.6, 3.7714e-08
783.8, 3.7408e-08
784.0, 3.7105e-08
784.2, 3.6804e-08
784.4, 3.6505e-08
784.6, 3.6209e-08
784.8, 3.5916e-08
785.0, 3.5625e-08
785.2, 3.4842e-08
785.4, 3.3977e-08
785.6, 3.3135e-08
785.8, 3.2313e-08
786.0, 3.1512e-08
786.2, 3.073e-08
786.4, 2.9968e-08
786.6, 2.9225e-08
786.8, 2.85e-08
787.0, 2.7793e-08
787.2, 2.6733e-08
787.4, 2.5548e-08
787.6, 2.4415e-08
787.8, 2.3332e-08
788.0, 2.2298e-08
788.2, 2.1309e-08
788.4, 2.0364e-08
788.6, 1.9461e-08
788.8, 1.8598e-08
789.0, 1.7773e-08
789.2, 1.9337e-08
789.4, 2.1846e-08
789.6, 2.4681e-08
789.8, 2.7884e-08
790.0, 3.1501e-08
790.2, 3.5589e-08
790.4, 4.0207e-08
790.6, 4.5424e-08
790.8, 5.1318e-08
791.0, 5.7976e-08
791.2, 6.351e-08
791.4, 6.9267e-08
791.6, 7.5546e-08
791.8, 8.2394e-08
792.0, 8.9863e-08
792.2, 9.8008e-08
792.4, 1.0689e-07
792.6, 1.1658e-07
792.8, 1.2715e-07
793.0, 1.3867e-07
793.2, 1.5727e-07
793.4, 1.7854e-07
793.6, 2.0268e-07
793.8, 2.3008e-07
794.0, 2.612e-07
794.2, 2.9652e-07
794.4, 3.3661e-07
794.6, 3.8213e-07
794.8, 4.338e-07
795.0, 4.8859e-07
795.2, 4.9926e-07
795.4, 5.1017e-07
795.6, 5.2131e-07
795.8, 5.327e-07
796.0, 5.4433e-07
796.2, 5.1899e-07
796.4, 4.514e-07
796.6, 3.9261e-07
796.8, 3.4148e-07
797.0, 2.9701e-07
797.2, 2.5833e-07
797.4, 2.2468e-07
797.6, 1.9542e-07
797.8, 1.6997e-07
798.0, 1.4783e-07
798.2, 1.2952e-07
798.4, 1.142e-07
798.6, 1.0069e-07
798.8, 8.8786e-08
799.0, 7.8286e-08
799.2, 6.9028e-08
799.4, 6.0865e-08
799.6, 5.3667e-08
799.8, 4.732e-08
800.0, 4.1724e-08
800.2, 3.2565e-08
800.4, 2.3695e-08
800.6, 1.7241e-08
800.8, 1.2545e-08
801.0, 9.1278e-09
801.2, 6.6416e-09
801.4, 4.8326e-09
801.6, 3.5163e-09
801.8, 2.5585e-09
802.0, 1.8616e-09
802.2, 1.861e-09
802.4, 2.08e-09
802.6, 2.3248e-09
802.8, 2.5984e-09
803.0, 2.9043e-09
803.2, 3.2461e-09
803.4, 3.6281e-09
803.6, 4.0551e-09
803.8, 4.5323e-09
804.0, 5.0657e-09
804.2, 5.7142e-09
804.4, 6.4566e-09
804.6, 7.2954e-09
804.8, 8.2431e-09
805.0, 9.3141e-09
805.2, 1.0524e-08
805.4, 1.1891e-08
805.6, 1.3436e-08
805.8, 1.5182e-08
806.0, 1.7154e-08
806.2, 1.7404e-08
806.4, 1.5124e-08
806.6, 1.3142e-08
806.8, 1.142e-08
807.0, 9.9239e-09
807.2, 8.6236e-09
807.4, 7.4937e-09
807.6, 6.5118e-09
807.8, 5.6586e-09
808.0, 4.9172e-09
808.2, 4.1207e-09
808.4, 3.3374e-09
808.6, 2.7029e-09
808.8, 2.1891e-09
809.0, 1.7729e-09
809.2, 1.4359e-09
809.4, 1.1629e-09
809.6, 9.4184e-10
809.8, 7.6279e-10
810.0, 6.1778e-10
810.2, 5.711e-10
810.4, 5.7157e-10
810.6, 5.7203e-10
810.8, 5.7249e-10
811.0, 5.7296e-10
811.2, 5.7342e-10
811.4, 5.7389e-10
811.6, 5.7435e-10
811.8, 5.7482e-10
812.0, 5.7528e-10
812.2, 7.4532e-10
812.4, 1.0598e-09
812.6, 1.507e-09
812.8, 2.1429e-09
813.0, 3.047e-09
813.2, 4.3327e-09
813.4, 6.1609e-09
813.6, 8.7605e-09
813.8, 1.2457e-08
814.0, 1.7713e-08
814.2, 1.7749e-08
814.4, 1.672e-08
814.6, 1.575e-08
814.8, 1.4837e-08
815.0, 1.3976e-08
815.2, 1.3166e-08
815.4, 1.2402e-08
815.6, 1.1683e-08
815.8, 1.1005e-08
816.0, 1.0367e-08
816.2, 1.0026e-08
816.4, 1.0094e-08
816.6, 1.0163e-08
816.8, 1.0232e-08
817.0, 1.0302e-08
817.2, 1.0372e-08
817.4, 1.0443e-08
817.6, 1.0514e-08
817.8, 1.0585e-08
818.0, 1.0657e-08
818.2, 1.0636e-08
818.4, 1.0527e-08
818.6, 1.0418e-08
818.8, 1.031e-08
819.0, 1.0204e-08
819.2, 1.0098e-08
819.4, 9.9939e-09
819.6, 9.8906e-09
819.8, 9.7884e-09
820.0, 9.6873e-09
820.2, 9.7633e-09
820.4, 9.9481e-09
820.6, 1.0136e-08
820.8, 1.0328e-08
821.0, 1.0524e-08
821.2, 1.0723e-08
821.4, 1.0926e-08
821.6, 1.1132e-08
821.8, 1.1343e-08
822.0, 1.1558e-08
822.2, 1.1996e-08
822.4, 1.2531e-08
822.6, 1.3089e-08
822.8, 1.3672e-08
823.0, 1.4281e-08
823.2, 1.4918e-08
823.4, 1.5582e-08
823.6, 1.6276e-08
823.8, 1.7002e-08
824.0, 1.7759e-08
824.2, 1.8751e-08
824.4, 1.9833e-08
824.6, 2.0976e-08
824.8, 2.2186e-08
825.0, 2.3465e-08
825.2, 2.4818e-08
825.4, 2.6249e-08
825.6, 2.7762e-08
825.8, 2.9363e-08
826.0, 3.1056e-08
826.2, 3.2692e-08
826.4, 3.4166e-08
826.6, 3.5706e-08
826.8, 3.7316e-08
827.0, 3.8998e-08
827.2, 4.0756e-08
827.4, 4.2594e-08
827.6, 4.4514e-08
827.8, 4.6521e-08
828.0, 4.8618e-08
828.2, 5.2624e-08
828.4, 5.8872e-08
828.6, 6.5863e-08
828.8, 7.3683e-08
829.0, 8.2432e-08
829.2, 9.222e-08
829.4, 1.0317e-07
829.6, 1.1542e-07
829.8, 1.2912e-07
830.0, 1.4446e-07
830.2, 1.6546e-07
830.4, 1.921e-07
830.6, 2.2304e-07
830.8, 2.5895e-07
831.0, 3.0065e-07
831.2, 3.4906e-07
831.4, 4.0527e-07
831.6, 4.7052e-07
831.8, 5.4629e-07
832.0, 6.3425e-07
832.2, 7.4235e-07
832.4, 8.7108e-07
832.6, 1.0221e-06
832.8, 1.1994e-06
833.0, 1.4074e-06
833.2, 1.6514e-06
833.4, 1.9378e-06
833.6, 2.2738e-06
833.8, 2.6682e-06
834.0, 3.1308e-06
834.2, 2.8878e-06
834.4, 2.5855e-06
834.6, 2.3148e-06
834.8, 2.0725e-06
835.0, 1.8556e-06
835.2, 1.6613e-06
835.4, 1.4874e-06
835.6, 1.3317e-06
835.8, 1.1923e-06
836.0, 1.0675e-06
836.2, 9.6984e-07
836.4, 9.0484e-07
836.6, 8.442e-07
836.8, 7.8762e-07
837.0, 7.3484e-07
837.2, 6.8559e-07
837.4, 6.3964e-07
837.6, 5.9677e-07
837.8, 5.5677e-07
838.0, 5.1946e-07
838.2, 4.9151e-07
838.4, 4.722e-07
838.6, 4.5365e-07
838.8, 4.3583e-07
839.0, 4.1872e-07
839.2, 4.0227e-07
839.4, 3.8647e-07
839.6, 3.7129e-07
839.8, 3.567e-07
840.0, 3.4269e-07
840.2, 3.3602e-07
840.4, 3.3381e-07
840.6, 3.3161e-07
840.8, 3.2943e-07
841.0, 3.2726e-07
841.2, 3.2511e-07
841.4, 3.2297e-07
841.6, 3.2084e-07
841.8, 3.1873e-07
842.0, 3.1663e-07
842.2, 3.2189e-07
842.4, 3.2983e-07
842.6, 3.3797e-07
842.8, 3.4631e-07
843.0, 3.5485e-07
843.2, 3.6361e-07
843.4, 3.7258e-07
843.6, 3.8177e-07
843.8, 3.9119e-07
844.0, 4.0085e-07
844.2, 4.1788e-07
844.4, 4.3667e-07
844.6, 4.5629e-07
844.8, 4.7681e-07
845.0, 4.9824e-07
845.2, 5.2063e-07
845.4, 5.4404e-07
845.6, 5.6849e-07
845.8, 5.9405e-07
846.0, 6.2075e-07
846.2, 6.6296e-07
846.4, 7.3937e-07
846.6, 8.2458e-07
846.8, 9.1962e-07
847.0, 1.0256e-06
847.2, 1.1438e-06
847.4, 1.2757e-06
847.6, 1.4227e-06
847.8, 1.5866e-06
848.0, 1.7695e-06
848.2, 1.9659e-06
848.4, 2.1745e-06
848.6, 2.4053e-06
848.8, 2.6605e-06
849.0, 2.9429e-06
849.2, 3.2552e-06
849.4, 3.6006e-06
849.6, 3.9828e-06
849.8, 4.4054e-06
850.0, 4.873e-06
850.2, 4.8146e-06
850.4, 4.419e-06
850.6, 4.0558e-06
850.8, 3.7225e-06
851.0, 3.4166e-06
851.2, 3.1359e-06
851.4, 2.8782e-06
851.6, 2.6416e-06
851.8, 2.4246e-06
852.0, 2.2253e-06
852.2, 1.9934e-06
852.4, 1.7708e-06
852.6, 1.5731e-06
852.8, 1.3974e-06
853.0, 1.2414e-06
853.2, 1.1028e-06
853.4, 9.7967e-07
853.6, 8.7028e-07
853.8, 7.7311e-07
854.0, 6.8679e-07
854.2, 6.2433e-07
854.4, 5.6924e-07
854.6, 5.1902e-07
854.8, 4.7323e-07
855.0, 4.3147e-07
855.2, 3.9341e-07
855.4, 3.587e-07
855.6, 3.2705e-07
855.8, 2.9819e-07
856.0, 2.7188e-07
856.2, 2.5315e-07
856.4, 2.4549e-07
856.6, 2.3806e-07
856.8, 2.3085e-07
857.0, 2.2387e-07
857.2, 2.1709e-07
857.4, 2.1052e-07
857.6, 2.0415e-07
857.8, 1.9797e-07
858.0, 1.9198e-07
858.2, 1.8743e-07
858.4, 1.8434e-07
858.6, 1.813e-07
858.8, 1.7831e-07
859.0, 1.7537e-07
859.2, 1.7248e-07
859.4, 1.6963e-07
859.6, 1.6683e-07
859.8, 1.6408e-07
860.0, 1.6137e-07
860.2, 1.5678e-07
860.4, 1.512e-07
860.6, 1.4581e-07
860.8, 1.4062e-07
861.0, 1.3562e-07
861.2, 1.3079e-07
861.4, 1.2613e-07
861.6, 1.2164e-07
861.8, 1.1731e-07
862.0, 1.1314e-07
862.2, 1.1278e-07
862.4, 1.1353e-07
862.6, 1.143e-07
862.8, 1.1506e-07
863.0, 1.1584e-07
863.2, 1.1662e-07
863.4, 1.174e-07
863.6, 1.1819e-07
863.8, 1.1898e-07
864.0, 1.1978e-07
864.2, 1.208e-07
864.4, 1.2185e-07
864.6, 1.2291e-07
864.8, 1.2398e-07
865.0, 1.2506e-07
865.2, 1.2614e-07
865.4, 1.2724e-07
865.6, 1.2834e-07
865.8, 1.2946e-07
866.0, 1.3058e-07
866.2, 1.3179e-07
866.4, 1.3315e-07
866.6, 1.3452e-07
866.8, 1.359e-07
867.0, 1.373e-07
867.2, 1.3871e-07
867.4, 1.4014e-07
867.6, 1.4159e-07
867.8, 1.4304e-07
868.0, 1.4452e-07
868.2, 1.4601e-07
868.4, 1.4753e-07
868.6, 1.4907e-07
868.8, 1.5062e-07
869.0, 1.5219e-07
869.2, 1.5377e-07
869.4, 1.5537e-07
869.6, 1.5699e-07
869.8, 1.5863e-07
870.0, 1.6028e-07
870.2, 1.6631e-07
870.4, 1.7521e-07
870.6, 1.846e-07
870.8, 1.9449e-07
871.0, 2.0491e-07
871.2, 2.1589e-07
871.4, 2.2746e-07
871.6, 2.3964e-07
871.8, 2.5248e-07
872.0, 2.6601e-07
872.2, 2.8067e-07
872.4, 2.9627e-07
872.6, 3.1274e-07
872.8, 3.3012e-07
873.0, 3.4846e-07
873.2, 3.6783e-07
873.4, 3.8827e-07
873.6, 4.0984e-07
873.8, 4.3262e-07
874.0, 4.5666e-07
874.2, 4.9055e-07
874.4, 5.2755e-07
874.6, 5.6734e-07
874.8, 6.1013e-07
875.0, 6.5614e-07
875.2, 7.0563e-07
875.4, 7.5885e-07
875.6, 8.1608e-07
875.8, 8.7763e-07
876.0, 9.4382e-07
876.2, 1.0272e-06
876.4, 1.1487e-06
876.6, 1.2847e-06
876.8, 1.4367e-06
877.0, 1.6067e-06
877.2, 1.7969e-06
877.4, 2.0095e-06
877.6, 2.2473e-06
877.8, 2.5132e-06
878.0, 2.8106e-06
878.2, 3.0164e-06
878.4, 3.0846e-06
878.6, 3.1543e-06
878.8, 3.2256e-06
879.0, 3.2985e-06
879.2, 3.373e-06
879.4, 3.4492e-06
879.6, 3.5271e-06
879.8, 3.6069e-06
880.0, 3.6884e-06
880.2, 3.5166e-06
880.4, 3.2089e-06
880.6, 2.9282e-06
880.8, 2.672e-06
881.0, 2.4383e-06
881.2, 2.225e-06
881.4, 2.0303e-06
881.6, 1.8527e-06
881.8, 1.6907e-06
882.0, 1.5428e-06
882.2, 1.4225e-06
882.4, 1.3156e-06
882.6, 1.2167e-06
882.8, 1.1252e-06
883.0, 1.0406e-06
883.2, 9.6239e-07
883.4, 8.9004e-07
883.6, 8.2314e-07
883.8, 7.6126e-07
884.0, 7.0403e-07
884.2, 6.6342e-07
884.4, 6.259e-07
884.6, 5.905e-07
884.8, 5.571e-07
885.0, 5.2559e-07
885.2, 4.9586e-07
885.4, 4.6782e-07
885.6, 4.4136e-07
885.8, 4.164e-07
886.0, 3.9285e-07
886.2, 3.7339e-07
886.4, 3.6191e-07
886.6, 3.5078e-07
886.8, 3.4e-07
887.0, 3.2955e-07
887.2, 3.1941e-07
887.4, 3.0959e-07
887.6, 3.0008e-07
887.8, 2.9085e-07
888.0, 2.8191e-07
888.2, 2.7505e-07
888.4, 2.7067e-07
888.6, 2.6636e-07
888.8, 2.6212e-07
889.0, 2.5794e-07
889.2, 2.5383e-07
889.4, 2.4979e-07
889.6, 2.4581e-07
889.8, 2.419e-07
890.0, 2.3805e-07
890.2, 2.3526e-07
890.4, 2.3317e-07
890.6, 2.311e-07
890.8, 2.2904e-07
891.0, 2.2701e-07
891.2, 2.2499e-07
891.4, 2.2299e-07
891.6, 2.2101e-07
891.8, 2.1905e-07
892.0, 2.171e-07
892.2, 2.1603e-07
892.4, 2.1524e-07
892.6, 2.1444e-07
892.8, 2.1365e-07
893.0, 2.1286e-07
893.2, 2.1207e-07
893.4, 2.1128e-07
893.6, 2.105e-07
893.8, 2.0972e-07
894.0, 2.0895e-07
894.2, 2.0648e-07
894.4, 2.0392e-07
894.6, 2.014e-07
894.8, 1.9891e-07
895.0, 1.9645e-07
895.2, 1.9402e-07
895.4, 1.9161e-07
895.6, 1.8924e-07
895.8, 1.869e-07
896.0, 1.8459e-07
896.2, 1.8409e-07
896.4, 1.8862e-07
896.6, 1.9327e-07
896.8, 1.9803e-07
897.0, 2.0291e-07
897.2, 2.0791e-07
897.4, 2.1303e-07
897.6, 2.1827e-07
897.8, 2.2365e-07
898.0, 2.2916e-07
898.2, 2.3319e-07
898.4, 2.3518e-07
898.6, 2.3719e-07
898.8, 2.3921e-07
899.0, 2.4125e-07
899.2, 2.4331e-07
899.4, 2.4539e-07
899.6, 2.4748e-07
899.8, 2.496e-07
900.0, 2.5173e-07
900.2, 2.5599e-07
900.4, 2.6174e-07
900.6, 2.6762e-07
900.8, 2.7364e-07
901.0, 2.7979e-07
901.2, 2.8607e-07
901.4, 2.925e-07
901.6, 2.9907e-07
901.8, 3.0579e-07
902.0, 3.1267e-07
902.2, 3.2089e-07
902.4, 3.2968e-07
902.6, 3.3871e-07
902.8, 3.4799e-07
903.0, 3.5752e-07
903.2, 3.6731e-07
903.4, 3.7737e-07
903.6, 3.8771e-07
903.8, 3.9832e-07
904.0, 4.0923e-07
904.2, 4.2374e-07
904.4, 4.3893e-07
904.6, 4.5465e-07
904.8, 4.7094e-07
905.0, 4.8782e-07
905.2, 5.053e-07
905.4, 5.234e-07
905.6, 5.4216e-07
905.8, 5.6159e-07
906.0, 5.8171e-07
906.2, 6.0466e-07
906.4, 6.3461e-07
906.6, 6.6605e-07
906.8, 6.9904e-07
907.0, 7.3367e-07
907.2, 7.7002e-07
907.4, 8.0816e-07
907.6, 8.482e-07
907.8, 8.9022e-07
908.0, 9.3432e-07
908.2, 9.831e-07
908.4, 1.0378e-06
908.6, 1.0955e-06
908.8, 1.1564e-06
909.0, 1.2207e-06
909.2, 1.2886e-06
909.4, 1.3603e-06
909.6, 1.436e-06
909.8, 1.5158e-06
910.0, 1.6001e-06
910.2, 1.7025e-06
910.4, 1.8204e-06
910.6, 1.9464e-06
910.8, 2.0812e-06
911.0, 2.2253e-06
911.2, 2.3794e-06
911.4, 2.5441e-06
911.6, 2.7202e-06
911.8, 2.9086e-06
912.0, 3.11e-06
912.2, 3.3296e-06
912.4, 3.5659e-06
912.6, 3.8191e-06
912.8, 4.0901e-06
913.0, 4.3804e-06
913.2, 4.6914e-06
913.4, 5.0244e-06
913.6, 5.381e-06
913.8, 5.7629e-06
914.0, 6.172e-06
914.2, 6.3658e-06
914.4, 6.5606e-06
914.6, 6.7614e-06
914.8, 6.9683e-06
915.0, 7.1816e-06
915.2, 7.4014e-06
915.4, 7.6279e-06
915.6, 7.8613e-06
915.8, 8.1019e-06
916.0, 8.3499e-06
916.2, 8.4948e-06
916.4, 8.2859e-06
916.6, 8.0821e-06
916.8, 7.8833e-06
917.0, 7.6893e-06
917.2, 7.5002e-06
917.4, 7.3157e-06
917.6, 7.1358e-06
917.8, 6.9602e-06
918.0, 6.789e-06
918.2, 6.5722e-06
918.4, 6.295e-06
918.6, 6.0294e-06
918.8, 5.7751e-06
919.0, 5.5315e-06
919.2, 5.2981e-06
919.4, 5.0746e-06
919.6, 4.8606e-06
919.8, 4.6555e-06
920.0, 4.4591e-06
920.2, 4.2909e-06
920.4, 4.1419e-06
920.6, 3.998e-06
920.8, 3.8591e-06
921.0, 3.725e-06
921.2, 3.5956e-06
921.4, 3.4707e-06
921.6, 3.3501e-06
921.8, 3.2338e-06
922.0, 3.1214e-06
922.2, 3.0395e-06
922.4, 2.9666e-06
922.6, 2.8955e-06
922.8, 2.826e-06
923.0, 2.7583e-06
923.2, 2.6921e-06
923.4, 2.6276e-06
923.6, 2.5645e-06
923.8, 2.503e-06
924.0, 2.443e-06
924.2, 2.4087e-06
924.4, 2.3753e-06
924.6, 2.3424e-06
924.8, 2.3099e-06
925.0, 2.2779e-06
925.2, 2.2463e-06
925.4, 2.2152e-06
925.6, 2.1845e-06
925.8, 2.1542e-06
926.0, 2.1244e-06
926.2, 2.1003e-06
926.4, 2.095e-06
926.6, 2.0896e-06
926.8, 2.0843e-06
927.0, 2.079e-06
927.2, 2.0737e-06
927.4, 2.0684e-06
927.6, 2.0632e-06
927.8, 2.0579e-06
928.0, 2.0527e-06
928.2, 2.0501e-06
928.4, 2.0513e-06
928.6, 2.0526e-06
928.8, 2.0538e-06
929.0, 2.055e-06
929.2, 2.0563e-06
929.4, 2.0575e-06
929.6, 2.0587e-06
929.8, 2.06e-06
930.0, 2.0612e-06
930.2, 2.0715e-06
930.4, 2.0879e-06
930.6, 2.1044e-06
930.8, 2.1211e-06
931.0, 2.1379e-06
931.2, 2.1548e-06
931.4, 2.1719e-06
931.6, 2.189e-06
931.8, 2.2064e-06
932.0, 2.2238e-06
932.2, 2.2531e-06
932.4, 2.2858e-06
932.6, 2.319e-06
932.8, 2.3526e-06
933.0, 2.3867e-06
933.2, 2.4213e-06
933.4, 2.4565e-06
933.6, 2.4921e-06
933.8, 2.5282e-06
934.0, 2.5649e-06
934.2, 2.6143e-06
934.4, 2.6647e-06
934.6, 2.716e-06
934.8, 2.7683e-06
935.0, 2.8216e-06
935.2, 2.876e-06
935.4, 2.9314e-06
935.6, 2.9878e-06
935.8, 3.0454e-06
936.0, 3.104e-06
936.2, 3.167e-06
936.4, 3.2436e-06
936.6, 3.3222e-06
936.8, 3.4026e-06
937.0, 3.485e-06
937.2, 3.5693e-06
937.4, 3.6557e-06
937.6, 3.7442e-06
937.8, 3.8349e-06
938.0, 3.9277e-06
938.2, 4.0343e-06
938.4, 4.1611e-06
938.6, 4.292e-06
938.8, 4.4269e-06
939.0, 4.5661e-06
939.2, 4.7097e-06
939.4, 4.8578e-06
939.6, 5.0106e-06
939.8, 5.1681e-06
940.0, 5.3306e-06
940.2, 5.5092e-06
940.4, 5.7013e-06
940.6, 5.9001e-06
940.8, 6.1058e-06
941.0, 6.3187e-06
941.2, 6.5391e-06
941.4, 6.7671e-06
941.6, 7.003e-06
941.8, 7.2472e-06
942.0, 7.4999e-06
942.2, 7.8053e-06
942.4, 8.1342e-06
942.6, 8.4769e-06
942.8, 8.8341e-06
943.0, 9.2063e-06
943.2, 9.5942e-06
943.4, 9.9984e-06
943.6, 1.042e-05
943.8, 1.0859e-05
944.0, 1.1318e-05
944.2, 1.1935e-05
944.4, 1.2586e-05
944.6, 1.3273e-05
944.8, 1.3998e-05
945.0, 1.4761e-05
945.2, 1.5567e-05
945.4, 1.6416e-05
945.6, 1.7231e-05
945.8, 1.7998e-05
946.0, 1.88e-05
946.2, 1.9711e-05
946.4, 2.0923e-05
946.6, 2.2209e-05
946.8, 2.3575e-05
947.0, 2.4774e-05
947.2, 2.6024e-05
947.4, 2.7337e-05
947.6, 2.8728e-05
947.8, 3.0195e-05
948.0, 3.1738e-05
948.2, 3.3446e-05
948.4, 3.5366e-05
948.6, 3.7396e-05
948.8, 3.9527e-05
949.0, 4.1701e-05
949.2, 4.3994e-05
949.4, 4.6412e-05
949.6, 4.9109e-05
949.8, 5.1979e-05
950.0, 5.5016e-05
950.2, 5.8306e-05
950.4, 6.1836e-05
950.6, 6.558e-05
950.8, 6.9426e-05
951.0, 7.3279e-05
951.2, 7.7345e-05
951.4, 8.1597e-05
951.6, 8.5745e-05
951.8, 9.0103e-05
952.0, 9.4684e-05
952.2, 9.9585e-05
952.4, 1.0476e-04
952.6, 1.1019e-04
952.8, 1.1512e-04
953.0, 1.1967e-04
953.2, 1.2441e-04
953.4, 1.2906e-04
953.6, 1.3327e-04
953.8, 1.3762e-04
954.0, 1.4202e-04
954.2, 1.4509e-04
954.4, 1.4823e-04
954.6, 1.5143e-04
954.8, 1.5417e-04
955.0, 1.5681e-04
955.2, 1.583e-04
955.4, 1.5981e-04
955.6, 1.6133e-04
955.8, 1.6286e-04
956.0, 1.6441e-04
956.2, 1.6562e-04
956.4, 1.6555e-04
956.6, 1.6547e-04
956.8, 1.654e-04
957.0, 1.6532e-04
957.2, 1.6525e-04
957.4, 1.6517e-04
957.6, 1.651e-04
957.8, 1.6502e-04
958.0, 1.6495e-04
958.2, 1.6467e-04
958.4, 1.6412e-04
958.6, 1.6357e-04
958.8, 1.6302e-04
959.0, 1.6248e-04
959.2, 1.6193e-04
959.4, 1.6139e-04
959.6, 1.6085e-04
959.8, 1.6031e-04
960.0, 1.5978e-04
960.2, 1.5959e-04
960.4, 1.596e-04
960.6, 1.5962e-04
960.8, 1.5964e-04
961.0, 1.5966e-04
961.2, 1.5967e-04
961.4, 1.5969e-04
961.6, 1.5971e-04
961.8, 1.5972e-04
962.0, 1.5974e-04
962.2, 1.6059e-04
962.4, 1.6159e-04
962.6, 1.626e-04
962.8, 1.6362e-04
963.0, 1.6465e-04
963.2, 1.6568e-04
963.4, 1.6671e-04
963.6, 1.6776e-04
963.8, 1.6881e-04
964.0, 1.6995e-04
964.2, 1.7238e-04
964.4, 1.7484e-04
964.6, 1.7734e-04
964.8, 1.7987e-04
965.0, 1.8244e-04
965.2, 1.8504e-04
965.4, 1.8768e-04
965.6, 1.9036e-04
965.8, 1.9308e-04
966.0, 1.9595e-04
966.2, 1.9897e-04
966.4, 2.0208e-04
966.6, 2.0562e-04
966.8, 2.1e-04
967.0, 2.1477e-04
967.2, 2.2056e-04
967.4, 2.2491e-04
967.6, 2.2966e-04
967.8, 2.3565e-04
968.0, 2.4061e-04
968.2, 2.4583e-04
968.4, 2.5259e-04
968.6, 2.5975e-04
968.8, 2.6704e-04
969.0, 2.7483e-04
969.2, 2.8395e-04
969.4, 2.9134e-04
969.6, 2.989e-04
969.8, 3.0815e-04
970.0, 3.1857e-04
970.2, 3.2625e-04
970.4, 3.3886e-04
970.6, 3.5169e-04
970.8, 3.6556e-04
971.0, 3.793e-04
971.2, 3.9144e-04
971.4, 4.0683e-04
971.6, 4.1929e-04
971.8, 4.3717e-04
972.0, 4.5652e-04
972.2, 4.7461e-04
972.4, 4.9582e-04
972.6, 5.2147e-04
972.8, 5.517e-04
973.0, 5.8128e-04
973.2, 6.0821e-04
973.4, 6.3432e-04
973.6, 6.6862e-04
973.8, 7.0016e-04
974.0, 7.3791e-04
974.2, 7.7607e-04
974.4, 8.1147e-04
974.6, 8.5151e-04
974.8, 8.9664e-04
975.0, 9.4546e-04
975.2, 9.837e-04
975.4, 0.00102
975.6, 0.00106
975.8, 0.00112
976.0, 0.00118
976.2, 0.00124
976.4, 0.00132
976.6, 0.00141
976.8, 0.00149
977.0, 0.0016
977.2, 0.0017
977.4, 0.00181
977.6, 0.00193
977.8, 0.00208
978.0, 0.0022
978.2, 0.00235
978.4, 0.00251
978.6, 0.00268
978.8, 0.00286
979.0, 0.00306
979.2, 0.00328
979.4, 0.00353
979.6, 0.0038
979.8, 0.00404
980.0, 0.00434
980.2, 0.00466
980.4, 0.00494
980.6, 0.00524
980.8, 0.00556
981.0, 0.00592
981.2, 0.00626
981.4, 0.00666
981.6, 0.00702
981.8, 0.00738
982.0, 0.00772
982.2, 0.00803
982.4, 0.00838
982.6, 0.00868
982.8, 0.009
983.0, 0.00922
983.2, 0.00944
983.4, 0.00963
983.6, 0.00974
983.8, 0.00991
984.0, 0.00997
984.2, 0.00999
984.4, 0.01002
984.6, 0.01002
984.8, 0.00996
985.0, 0.00988
985.2, 0.00979
985.4, 0.0097
985.6, 0.0096
985.8, 0.00958
986.0, 0.00944
986.2, 0.00929
986.4, 0.00921
986.6, 0.00911
986.8, 0.00901
987.0, 0.00888
987.2, 0.00879
987.4, 0.00871
987.6, 0.00865
987.8, 0.00851
988.0, 0.00846
988.2, 0.0084
988.4, 0.00831
988.6, 0.00824
988.8, 0.00821
989.0, 0.00817
989.2, 0.00812
989.4, 0.00809
989.6, 0.00809
989.8, 0.00808
990.0, 0.0081
990.2, 0.00809
990.4, 0.00811
990.6, 0.00813
990.8, 0.00816
991.0, 0.00818
991.2, 0.00825
991.4, 0.00832
991.6, 0.00842
991.8, 0.00847
992.0, 0.00857
992.2, 0.00862
992.4, 0.00871
992.6, 0.00888
992.8, 0.00899
993.0, 0.00913
993.2, 0.00924
993.4, 0.00941
993.6, 0.00961
993.8, 0.00978
994.0, 0.00997
994.2, 0.01013
994.4, 0.01038
994.6, 0.01073
994.8, 0.01088
995.0, 0.01108
995.2, 0.01134
995.4, 0.01162
995.6, 0.0119
995.8, 0.01213
996.0, 0.01251
996.2, 0.01285
996.4, 0.01325
996.6, 0.01363
996.8, 0.01408
997.0, 0.01452
997.2, 0.01505
997.4, 0.01549
997.6, 0.01589
997.8, 0.01647
998.0, 0.01708
998.2, 0.01758
998.4, 0.01815
998.6, 0.0188
998.8, 0.01945
999.0, 0.02015
999.2, 0.02076
999.4, 0.02146
999.6, 0.02225
999.8, 0.02309
1000.0, 0.02374
1000.2, 0.02441
1000.4, 0.02534
1000.6, 0.02609
1000.8, 0.02688
1001.0, 0.02763
1001.2, 0.02832
1001.4, 0.02917
1001.6, 0.02996
1001.8, 0.03053
1002.0, 0.03122
1002.2, 0.03199
1002.4, 0.03265
1002.6, 0.03316
1002.8, 0.0337
1003.0, 0.03427
1003.2, 0.03462
1003.4, 0.03502
1003.6, 0.03522
1003.8, 0.03554
1004.0, 0.03587
1004.2, 0.03594
1004.4, 0.03608
1004.6, 0.03616
1004.8, 0.03621
1005.0, 0.03602
1005.2, 0.03564
1005.4, 0.0355
1005.6, 0.03543
1005.8, 0.03527
1006.0, 0.03506
1006.2, 0.03499
1006.4, 0.03462
1006.6, 0.03445
1006.8, 0.0343
1007.0, 0.03404
1007.2, 0.03367
1007.4, 0.03342
1007.6, 0.03314
1007.8, 0.03284
1008.0, 0.03264
1008.2, 0.03238
1008.4, 0.03208
1008.6, 0.03193
1008.8, 0.03164
1009.0, 0.03134
1009.2, 0.03124
1009.4, 0.03103
1009.6, 0.03078
1009.8, 0.03066
1010.0, 0.03042
1010.2, 0.03031
1010.4, 0.0303
1010.6, 0.03018
1010.8, 0.03004
1011.0, 0.03003
1011.2, 0.02992
1011.4, 0.02988
1011.6, 0.03001
1011.8, 0.02997
1012.0, 0.02997
1012.2, 0.03007
1012.4, 0.0301
1012.6, 0.0302
1012.8, 0.0304
1013.0, 0.0305
1013.2, 0.03073
1013.4, 0.03095
1013.6, 0.03117
1013.8, 0.03141
1014.0, 0.03177
1014.2, 0.03197
1014.4, 0.03234
1014.6, 0.03266
1014.8, 0.0331
1015.0, 0.03342
1015.2, 0.03394
1015.4, 0.03437
1015.6, 0.03492
1015.8, 0.03548
1016.0, 0.03602
1016.2, 0.0367
1016.4, 0.03742
1016.6, 0.03801
1016.8, 0.03893
1017.0, 0.03978
1017.2, 0.04046
1017.4, 0.04153
1017.6, 0.0424
1017.8, 0.04354
1018.0, 0.04463
1018.2, 0.0457
1018.4, 0.04686
1018.6, 0.04838
1018.8, 0.04978
1019.0, 0.05126
1019.2, 0.05281
1019.4, 0.05444
1019.6, 0.05612
1019.8, 0.05827
1020.0, 0.06039
1020.2, 0.06249
1020.4, 0.06482
1020.6, 0.06717
1020.8, 0.06981
1021.0, 0.07287
1021.2, 0.07572
1021.4, 0.0789
1021.6, 0.08261
1021.8, 0.0859
1022.0, 0.09017
1022.2, 0.09437
1022.4, 0.09872
1022.6, 0.10351
1022.8, 0.10906
1023.0, 0.11422
1023.2, 0.12088
1023.4, 0.12695
1023.6, 0.13378
1023.8, 0.14173
1024.0, 0.1497
1024.2, 0.15839
1024.4, 0.16857
1024.6, 0.17824
1024.8, 0.18942
1025.0, 0.19888
1025.2, 0.20875
1025.4, 0.22268
1025.6, 0.23637
1025.8, 0.25063
1026.0, 0.26831
1026.2, 0.28565
1026.4, 0.30423
1026.6, 0.32607
1026.8, 0.34496
1027.0, 0.36604
1027.2, 0.39011
1027.4, 0.41312
1027.6, 0.43822
1027.8, 0.46335
1028.0, 0.48732
1028.2, 0.51244
1028.4, 0.53496
1028.6, 0.55807
1028.8, 0.58142
1029.0, 0.59912
1029.2, 0.61519
1029.4, 0.63038
1029.6, 0.64015
1029.8, 0.64894
1030.0, 0.65309
1030.2, 0.65477
1030.4, 0.6534
1030.6, 0.6479
1030.8, 0.64241
1031.0, 0.63298
1031.2, 0.62227
1031.4, 0.61038
1031.6, 0.59634
1031.8, 0.58221
1032.0, 0.56801
1032.2, 0.55305
1032.4, 0.53827
1032.6, 0.52275
1032.8, 0.50779
1033.0, 0.49515
1033.2, 0.4804
1033.4, 0.4679
1033.6, 0.45779
1033.8, 0.44365
1034.0, 0.43244
1034.2, 0.42229
1034.4, 0.41146
1034.6, 0.40303
1034.8, 0.39434
1035.0, 0.38585
1035.2, 0.37896
1035.4, 0.37091
1035.6, 0.36462
1035.8, 0.35967
1036.0, 0.35345
1036.2, 0.34917
1036.4, 0.34415
1036.6, 0.33913
1036.8, 0.33678
1037.0, 0.33261
1037.2, 0.33026
1037.4, 0.32845
1037.6, 0.32575
1037.8, 0.32434
1038.0, 0.32334
1038.2, 0.32078
1038.4, 0.32138
1038.6, 0.32051
1038.8, 0.32021
1039.0, 0.321
1039.2, 0.32148
1039.4, 0.32197
1039.6, 0.3234
1039.8, 0.32467
1040.0, 0.3269
1040.2, 0.32835
1040.4, 0.33093
1040.6, 0.33399
1040.8, 0.33634
1041.0, 0.3402
1041.2, 0.34368
1041.4, 0.34704
1041.6, 0.35156
1041.8, 0.35631
1042.0, 0.36053
1042.2, 0.36696
1042.4, 0.3712
1042.6, 0.37655
1042.8, 0.38312
1043.0, 0.38865
1043.2, 0.39588
1043.4, 0.40227
1043.6, 0.40972
1043.8, 0.41765
1044.0, 0.42372
1044.2, 0.43227
1044.4, 0.43984
1044.6, 0.44797
1044.8, 0.45738
1045.0, 0.46431
1045.2, 0.4722
1045.4, 0.48162
1045.6, 0.49012
1045.8, 0.49916
1046.0, 0.50722
1046.2, 0.51645
1046.4, 0.52467
1046.6, 0.53312
1046.8, 0.54297
1047.0, 0.55103
1047.2, 0.55849
1047.4, 0.56761
1047.6, 0.57325
1047.8, 0.5797
1048.0, 0.58727
1048.2, 0.59072
1048.4, 0.59766
1048.6, 0.60181
1048.8, 0.6057
1049.0, 0.61073
1049.2, 0.61134
1049.4, 0.61312
1049.6, 0.61455
1049.8, 0.61484
1050.0, 0.61492
1050.2, 0.6147
1050.4, 0.61369
1050.6, 0.61088
1050.8, 0.60661
1051.0, 0.60469
1051.2, 0.59872
1051.4, 0.59712
1051.6, 0.59231
1051.8, 0.58632
1052.0, 0.58334
1052.2, 0.57633
1052.4, 0.57017
1052.6, 0.56388
1052.8, 0.55733
1053.0, 0.55145
1053.2, 0.54519
1053.4, 0.53901
1053.6, 0.53316
1053.8, 0.52612
1054.0, 0.52068
1054.2, 0.51356
1054.4, 0.50756
1054.6, 0.503
1054.8, 0.49688
1055.0, 0.49173
1055.2, 0.48612
1055.4, 0.48174
1055.6, 0.47738
1055.8, 0.47208
1056.0, 0.46891
1056.2, 0.46488
1056.4, 0.45969
1056.6, 0.45734
1056.8, 0.45302
1057.0, 0.45137
1057.2, 0.44891
1057.4, 0.44648
1057.6, 0.44523
1057.8, 0.44246
1058.0, 0.44144
1058.2, 0.44126
1058.4, 0.43891
1058.6, 0.43897
1058.8, 0.43847
1059.0, 0.43767
1059.2, 0.43979
1059.4, 0.43982
1059.6, 0.44114
1059.8, 0.44248
1060.0, 0.44369
1060.2, 0.44756
1060.4, 0.44788
1060.6, 0.45145
1060.8, 0.45503
1061.0, 0.45721
1061.2, 0.46221
1061.4, 0.46533
1061.6, 0.46991
1061.8, 0.47539
1062.0, 0.48021
1062.2, 0.48641
1062.4, 0.49165
1062.6, 0.4982
1062.8, 0.50551
1063.0, 0.51204
1063.2, 0.52018
1063.4, 0.52725
1063.6, 0.53633
1063.8, 0.5446
1064.0, 0.55409
1064.2, 0.56502
1064.4, 0.57397
1064.6, 0.58443
1064.8, 0.59553
1065.0, 0.60791
1065.2, 0.6203
1065.4, 0.63135
1065.6, 0.64364
1065.8, 0.65561
1066.0, 0.66626
1066.2, 0.67973
1066.4, 0.69233
1066.6, 0.7042
1066.8, 0.71736
1067.0, 0.72759
1067.2, 0.74023
1067.4, 0.75088
1067.6, 0.76004
1067.8, 0.77182
1068.0, 0.77849
1068.2, 0.78638
1068.4, 0.79235
1068.6, 0.79634
1068.8, 0.79978
1069.0, 0.80113
1069.2, 0.80195
1069.4, 0.80035
1069.6, 0.79663
1069.8, 0.79229
1070.0, 0.78518
1070.2, 0.77682
1070.4, 0.76774
1070.6, 0.7565
1070.8, 0.74301
1071.0, 0.72852
1071.2, 0.71368
1071.4, 0.69679
1071.6, 0.67909
1071.8, 0.66246
1072.0, 0.64308
1072.2, 0.62601
1072.4, 0.60605
1072.6, 0.58754
1072.8, 0.56929
1073.0, 0.55022
1073.2, 0.53278
1073.4, 0.51425
1073.6, 0.49618
1073.8, 0.47938
1074.0, 0.46135
1074.2, 0.44631
1074.4, 0.42923
1074.6, 0.414
1074.8, 0.39944
1075.0, 0.38486
1075.2, 0.37126
1075.4, 0.35755
1075.6, 0.34551
1075.8, 0.33375
1076.0, 0.32186
1076.2, 0.31197
1076.4, 0.3005
1076.6, 0.29083
1076.8, 0.28104
1077.0, 0.27261
1077.2, 0.26357
1077.4, 0.25574
1077.6, 0.24747
1077.8, 0.23919
1078.0, 0.23277
1078.2, 0.2256
1078.4, 0.21863
1078.6, 0.21278
1078.8, 0.20577
1079.0, 0.20121
1079.2, 0.1955
1079.4, 0.1912
1079.6, 0.18532
1079.8, 0.18141
1080.0, 0.17695
1080.2, 0.17231
1080.4, 0.16865
1080.6, 0.16488
1080.8, 0.16083
1081.0, 0.1581
1081.2, 0.15469
1081.4, 0.15119
1081.6, 0.14823
1081.8, 0.14527
1082.0, 0.1433
1082.2, 0.13996
1082.4, 0.13791
1082.6, 0.13486
1082.8, 0.13261
1083.0, 0.13062
1083.2, 0.12865
1083.4, 0.12697
1083.6, 0.12471
1083.8, 0.12296
1084.0, 0.12153
1084.2, 0.11941
1084.4, 0.11837
1084.6, 0.11729
1084.8, 0.11597
1085.0, 0.11456
1085.2, 0.11318
1085.4, 0.11207
1085.6, 0.11126
1085.8, 0.11022
1086.0, 0.10937
1086.2, 0.10841
1086.4, 0.10755
1086.6, 0.10622
1086.8, 0.10633
1087.0, 0.10537
1087.2, 0.10501
1087.4, 0.10384
1087.6, 0.10392
1087.8, 0.10318
1088.0, 0.10278
1088.2, 0.10272
1088.4, 0.1019
1088.6, 0.10171
1088.8, 0.10158
1089.0, 0.10207
1089.2, 0.10167
1089.4, 0.10142
1089.6, 0.10136
1089.8, 0.10123
1090.0, 0.10095
1090.2, 0.10037
1090.4, 0.10086
1090.6, 0.10148
1090.8, 0.10041
1091.0, 0.10219
1091.2, 0.10206
1091.4, 0.10274
1091.6, 0.10333
1091.8, 0.10405
1092.0, 0.10419
1092.2, 0.1051
1092.4, 0.10607
1092.6, 0.10634
1092.8, 0.10731
1093.0, 0.1078
1093.2, 0.10967
1093.4, 0.10994
1093.6, 0.11065
1093.8, 0.11175
1094.0, 0.11267
1094.2, 0.11483
1094.4, 0.11522
1094.6, 0.11698
1094.8, 0.11883
1095.0, 0.12026
1095.2, 0.12129
1095.4, 0.12204
1095.6, 0.12441
1095.8, 0.12632
1096.0, 0.1278
1096.2, 0.12993
1096.4, 0.13161
1096.6, 0.13373
1096.8, 0.13498
1097.0, 0.1382
1097.2, 0.14038
1097.4, 0.14273
1097.6, 0.14468
1097.8, 0.1472
1098.0, 0.1497
1098.2, 0.15278
1098.4, 0.15531
1098.6, 0.1574
1098.8, 0.16102
1099.0, 0.1634
1099.2, 0.16723
1099.4, 0.17036
1099.6, 0.17404
1099.8, 0.17914
1100.0, 0.18197
1100.2, 0.18654
1100.4, 0.19098
1100.6, 0.1947
1100.8, 0.19849
1101.0, 0.20452
1101.2, 0.20913
1101.4, 0.21373
1101.6, 0.21942
1101.8, 0.22502
1102.0, 0.23175
1102.2, 0.23698
1102.4, 0.24347
1102.6, 0.24844
1102.8, 0.2544
1103.0, 0.26259
1103.2, 0.27003
1103.4, 0.27822
1103.6, 0.28497
1103.8, 0.29456
1104.0, 0.30375
1104.2, 0.31134
1104.4, 0.32071
1104.6, 0.32965
1104.8, 0.33967
1105.0, 0.34793
1105.2, 0.35844
1105.4, 0.36979
1105.6, 0.37971
1105.8, 0.39256
1106.0, 0.40335
1106.2, 0.41449
1106.4, 0.42641
1106.6, 0.43768
1106.8, 0.45129
1107.0, 0.46385
1107.2, 0.47552
1107.4, 0.49044
1107.6, 0.50404
1107.8, 0.51581
1108.0, 0.53054
1108.2, 0.54386
1108.4, 0.56065
1108.6, 0.57145
1108.8, 0.58767
1109.0, 0.60045
1109.2, 0.61246
1109.4, 0.62544
1109.6, 0.64209
1109.8, 0.65391
1110.0, 0.66825
1110.2, 0.67956
1110.4, 0.69396
1110.6, 0.70793
1110.8, 0.71793
1111.0, 0.73212
1111.2, 0.74198
1111.4, 0.7541
1111.6, 0.76417
1111.8, 0.77199
1112.0, 0.77874
1112.2, 0.78797
1112.4, 0.79534
1112.6, 0.80326
1112.8, 0.81255
1113.0, 0.81802
1113.2, 0.82319
1113.4, 0.82672
1113.6, 0.83339
1113.8, 0.83368
1114.0, 0.83862
1114.2, 0.83925
1114.4, 0.84059
1114.6, 0.84448
1114.8, 0.8459
1115.0, 0.8494
1115.2, 0.84486
1115.4, 0.84973
1115.6, 0.85062
1115.8, 0.84839
1116.0, 0.84814
1116.2, 0.85056
1116.4, 0.84693
1116.6, 0.84574
1116.8, 0.84457
1117.0, 0.84398
1117.2, 0.84501
1117.4, 0.84328
1117.6, 0.84486
1117.8, 0.83924
1118.0, 0.84288
1118.2, 0.84603
1118.4, 0.83529
1118.6, 0.84407
1118.8, 0.83739
1119.0, 0.8434
1119.2, 0.83944
1119.4, 0.83992
1119.6, 0.84371
1119.8, 0.84376
1120.0, 0.84654
1120.2, 0.848
1120.4, 0.84836
1120.6, 0.84496
1120.8, 0.84925
1121.0, 0.82605
1121.2, 0.82856
1121.4, 0.83107
1121.6, 0.83359
1121.8, 0.83612
1122.0, 0.83868
1122.2, 0.84196
1122.4, 0.84526
1122.6, 0.84856
1122.8, 0.85188
1123.0, 0.85522
1123.2, 0.85866
1123.4, 0.86212
1123.6, 0.8656
1123.8, 0.86908
1124.0, 0.87258
1124.2, 0.87599
1124.4, 0.8794
1124.6, 0.88283
1124.8, 0.88628
1125.0, 0.88973
1125.2, 0.89217
1125.4, 0.89462
1125.6, 0.89708
1125.8, 0.89955
1126.0, 0.90195
1126.2, 0.90217
1126.4, 0.9024
1126.6, 0.90262
1126.8, 0.90285
1127.0, 0.90303
1127.2, 0.9001
1127.4, 0.89718
1127.6, 0.89427
1127.8, 0.89136
1128.0, 0.8883
1128.2, 0.88124
1128.4, 0.87424
1128.6, 0.86729
1128.8, 0.86039
1129.0, 0.85346
1129.2, 0.84221
1129.4, 0.83111
1129.6, 0.82016
1129.8, 0.80934
1130.0, 0.79853
1130.2, 0.78429
1130.4, 0.77031
1130.6, 0.75658
1130.8, 0.74309
1131.0, 0.72976
1131.2, 0.7135
1131.4, 0.69761
1131.6, 0.68207
1131.8, 0.66688
1132.0, 0.652
1132.2, 0.63484
1132.4, 0.61812
1132.6, 0.60185
1132.8, 0.58601
1133.0, 0.57051
1133.2, 0.55343
1133.4, 0.53687
1133.6, 0.52081
1133.8, 0.50522
1134.0, 0.49011
1134.2, 0.47576
1134.4, 0.46184
1134.6, 0.44832
1134.8, 0.4352
1135.0, 0.42243
1135.2, 0.40936
1135.4, 0.3967
1135.6, 0.38443
1135.8, 0.37254
1136.0, 0.36104
1136.2, 0.35065
1136.4, 0.34056
1136.6, 0.33076
1136.8, 0.32125
1137.0, 0.312
1137.2, 0.30278
1137.4, 0.29384
1137.6, 0.28516
1137.8, 0.27673
1138.0, 0.26857
1138.2, 0.26105
1138.4, 0.25373
1138.6, 0.24662
1138.8, 0.23971
1139.0, 0.233
1139.2, 0.22689
1139.4, 0.22095
1139.6, 0.21516
1139.8, 0.20952
1140.0, 0.20403
1140.2, 0.19882
1140.4, 0.19374
1140.6, 0.18879
1140.8, 0.18396
1141.0, 0.17927
1141.2, 0.17506
1141.4, 0.17094
1141.6, 0.16693
1141.8, 0.163
1142.0, 0.15918
1142.2, 0.15575
1142.4, 0.15239
1142.6, 0.14911
1142.8, 0.1459
1143.0, 0.14275
1143.2, 0.13989
1143.4, 0.13708
1143.6, 0.13433
1143.8, 0.13164
1144.0, 0.12901
1144.2, 0.12666
1144.4, 0.12436
1144.6, 0.1221
1144.8, 0.11988
1145.0, 0.1177
1145.2, 0.11573
1145.4, 0.11379
1145.6, 0.11188
1145.8, 0.11001
1146.0, 0.10816
1146.2, 0.10645
1146.4, 0.10477
1146.6, 0.10311
1146.8, 0.10148
1147.0, 0.09989
1147.2, 0.0986
1147.4, 0.09732
1147.6, 0.09607
1147.8, 0.09483
1148.0, 0.09361
1148.2, 0.09251
1148.4, 0.09142
1148.6, 0.09035
1148.8, 0.08929
1149.0, 0.08824
1149.2, 0.08725
1149.4, 0.08628
1149.6, 0.08531
1149.8, 0.08436
1150.0, 0.08341
1150.2, 0.08272
1150.4, 0.08203
1150.6, 0.08135
1150.8, 0.08067
1151.0, 0.08
1151.2, 0.07942
1151.4, 0.07884
1151.6, 0.07827
1151.8, 0.0777
1152.0, 0.07713
1152.2, 0.07657
1152.4, 0.07601
1152.6, 0.07545
1152.8, 0.0749
1153.0, 0.07436
1153.2, 0.07404
1153.4, 0.07371
1153.6, 0.07339
1153.8, 0.07307
1154.0, 0.07276
1154.2, 0.07248
1154.4, 0.0722
1154.6, 0.07192
1154.8, 0.07164
1155.0, 0.07137
1155.2, 0.07121
1155.4, 0.07105
1155.6, 0.07089
1155.8, 0.07073
1156.0, 0.07058
1156.2, 0.07054
1156.4, 0.0705
1156.6, 0.07045
1156.8, 0.07041
1157.0, 0.07037
1157.2, 0.07037
1157.4, 0.07037
1157.6, 0.07036
1157.8, 0.07036
1158.0, 0.07036
1158.2, 0.07051
1158.4, 0.07065
1158.6, 0.0708
1158.8, 0.07095
1159.0, 0.0711
1159.2, 0.07125
1159.4, 0.0714
1159.6, 0.07155
1159.8, 0.07169
1160.0, 0.07185
1160.2, 0.07218
1160.4, 0.07251
1160.6, 0.07284
1160.8, 0.07318
1161.0, 0.07351
1161.2, 0.07382
1161.4, 0.07413
1161.6, 0.07444
1161.8, 0.07475
1162.0, 0.07507
1162.2, 0.0756
1162.4, 0.07613
1162.6, 0.07666
1162.8, 0.0772
1163.0, 0.07774
1163.2, 0.07827
1163.4, 0.07881
1163.6, 0.07935
1163.8, 0.0799
1164.0, 0.08046
1164.2, 0.0812
1164.4, 0.08195
1164.6, 0.0827
1164.8, 0.08346
1165.0, 0.08423
1165.2, 0.08504
1165.4, 0.08586
1165.6, 0.08669
1165.8, 0.08752
1166.0, 0.08837
1166.2, 0.08935
1166.4, 0.09034
1166.6, 0.09135
1166.8, 0.09236
1167.0, 0.09339
1167.2, 0.09448
1167.4, 0.09558
1167.6, 0.09669
1167.8, 0.09782
1168.0, 0.09897
1168.2, 0.10035
1168.4, 0.10174
1168.6, 0.10316
1168.8, 0.10459
1169.0, 0.10604
1169.2, 0.10749
1169.4, 0.10896
1169.6, 0.11044
1169.8, 0.11195
1170.0, 0.11349
1170.2, 0.11534
1170.4, 0.11723
1170.6, 0.11914
1170.8, 0.12108
1171.0, 0.12306
1171.2, 0.12497
1171.4, 0.12692
1171.6, 0.12889
1171.8, 0.1309
1172.0, 0.13294
1172.2, 0.1354
1172.4, 0.1379
1172.6, 0.14045
1172.8, 0.14305
1173.0, 0.14569
1173.2, 0.14824
1173.4, 0.15084
1173.6, 0.15348
1173.8, 0.15617
1174.0, 0.15892
1174.2, 0.1622
1174.4, 0.16555
1174.6, 0.16897
1174.8, 0.17246
1175.0, 0.17602
1175.2, 0.17957
1175.4, 0.18318
1175.6, 0.18688
1175.8, 0.19064
1176.0, 0.19449
1176.2, 0.19852
1176.4, 0.20263
1176.6, 0.20683
1176.8, 0.21112
1177.0, 0.2155
1177.2, 0.22028
1177.4, 0.22516
1177.6, 0.23016
1177.8, 0.23527
1178.0, 0.24048
1178.2, 0.2458
1178.4, 0.25124
1178.6, 0.2568
1178.8, 0.26248
1179.0, 0.26828
1179.2, 0.27438
1179.4, 0.28061
1179.6, 0.28698
1179.8, 0.29349
1180.0, 0.30018
1180.2, 0.30751
1180.4, 0.31502
1180.6, 0.32271
1180.8, 0.33059
1181.0, 0.33862
1181.2, 0.34597
1181.4, 0.35347
1181.6, 0.36114
1181.8, 0.36897
1182.0, 0.37697
1182.2, 0.38558
1182.4, 0.39438
1182.6, 0.40338
1182.8, 0.41258
1183.0, 0.422
1183.2, 0.43173
1183.4, 0.44169
1183.6, 0.45187
1183.8, 0.46229
1184.0, 0.47289
1184.2, 0.48226
1184.4, 0.49181
1184.6, 0.50155
1184.8, 0.51149
1185.0, 0.52163
1185.2, 0.53235
1185.4, 0.54328
1185.6, 0.55445
1185.8, 0.56584
1186.0, 0.57743
1186.2, 0.58821
1186.4, 0.59919
1186.6, 0.61038
1186.8, 0.62177
1187.0, 0.63331
1187.2, 0.6435
1187.4, 0.65386
1187.6, 0.66438
1187.8, 0.67507
1188.0, 0.68592
1188.2, 0.69609
1188.4, 0.70641
1188.6, 0.71688
1188.8, 0.72751
1189.0, 0.73825
1189.2, 0.74781
1189.4, 0.75749
1189.6, 0.76729
1189.8, 0.77722
1190.0, 0.78718
1190.2, 0.79523
1190.4, 0.80337
1190.6, 0.81158
1190.8, 0.81989
1191.0, 0.82825
1191.2, 0.83537
1191.4, 0.84256
1191.6, 0.84982
1191.8, 0.85713
1192.0, 0.86445
1192.2, 0.87034
1192.4, 0.87627
1192.6, 0.88225
1192.8, 0.88826
1193.0, 0.89429
1193.2, 0.89885
1193.4, 0.90345
1193.6, 0.90806
1193.8, 0.9127
1194.0, 0.91731
1194.2, 0.92048
1194.4, 0.92367
1194.6, 0.92686
1194.8, 0.93007
1195.0, 0.93326
1195.2, 0.93502
1195.4, 0.93679
1195.6, 0.93856
1195.8, 0.94033
1196.0, 0.94208
1196.2, 0.94299
1196.4, 0.9439
1196.6, 0.94481
1196.8, 0.94573
1197.0, 0.94662
1197.2, 0.94624
1197.4, 0.94585
1197.6, 0.94546
1197.8, 0.94508
1198.0, 0.94465
1198.2, 0.94307
1198.4, 0.9415
1198.6, 0.93993
1198.8, 0.93837
1199.0, 0.93679
1199.2, 0.93421
1199.4, 0.93164
1199.6, 0.92908
1199.8, 0.92652
1200.0, 0.92397