## Type: filter
## Name: 392/23
wavelength,transmission
265.0, 1.6992e-05
265.2, 1.494e-05
265.4, 1.3135e-05
265.6, 1.1548e-05
265.8, 1.0153e-05
266.0, 8.9268e-06
266.2, 7.8485e-06
266.4, 6.9004e-06
266.6, 6.0668e-06
266.8, 5.334e-06
267.0, 4.6897e-06
267.2, 4.1232e-06
267.4, 3.6251e-06
267.6, 3.1872e-06
267.8, 2.8022e-06
268.0, 2.4637e-06
268.2, 2.1661e-06
268.4, 1.9044e-06
268.6, 1.6744e-06
268.8, 1.4721e-06
269.0, 1.2943e-06
269.2, 1.1379e-06
269.4, 1.0005e-06
269.6, 9.8719e-07
269.8, 9.7755e-07
270.0, 9.6801e-07
270.2, 9.5856e-07
270.4, 9.492e-07
270.6, 9.3994e-07
270.8, 9.3076e-07
271.0, 9.2168e-07
271.2, 9.1268e-07
271.4, 9.0377e-07
271.6, 8.9495e-07
271.8, 8.8621e-07
272.0, 8.7756e-07
272.2, 8.6899e-07
272.4, 8.6051e-07
272.6, 8.5211e-07
272.8, 8.4379e-07
273.0, 8.3556e-07
273.2, 8.274e-07
273.4, 8.1933e-07
273.6, 8.1133e-07
273.8, 8.0341e-07
274.0, 7.9557e-07
274.2, 1.1037e-06
274.4, 1.9263e-06
274.6, 3.362e-06
274.8, 5.8676e-06
275.0, 1.0241e-05
275.2, 8.4818e-06
275.4, 7.025e-06
275.6, 5.8185e-06
275.8, 4.8191e-06
276.0, 3.9914e-06
276.2, 3.3059e-06
276.4, 2.7381e-06
276.6, 2.2678e-06
276.8, 1.8783e-06
277.0, 1.5557e-06
277.2, 1.2885e-06
277.4, 1.0672e-06
277.6, 8.8389e-07
277.8, 7.3208e-07
278.0, 6.6669e-07
278.2, 6.5719e-07
278.4, 6.4782e-07
278.6, 6.3859e-07
278.8, 6.2949e-07
279.0, 6.2052e-07
279.2, 6.1168e-07
279.4, 6.0297e-07
279.6, 5.9437e-07
279.8, 5.859e-07
280.0, 5.7755e-07
280.2, 5.6932e-07
280.4, 5.6121e-07
280.6, 5.5321e-07
280.8, 5.4533e-07
281.0, 5.3756e-07
281.2, 5.299e-07
281.4, 5.2235e-07
281.6, 5.1491e-07
281.8, 5.0757e-07
282.0, 5.0034e-07
282.2, 4.9321e-07
282.4, 4.8618e-07
282.6, 5.0217e-07
282.8, 6.417e-07
283.0, 8.1999e-07
283.2, 1.0478e-06
283.4, 1.339e-06
283.6, 1.711e-06
283.8, 2.1864e-06
284.0, 2.7939e-06
284.2, 3.5702e-06
284.4, 4.5621e-06
284.6, 5.8297e-06
284.8, 7.4495e-06
285.0, 9.5194e-06
285.2, 7.4939e-06
285.4, 5.8995e-06
285.6, 4.6442e-06
285.8, 3.6561e-06
286.0, 2.8782e-06
286.2, 2.2658e-06
286.4, 1.7837e-06
286.6, 1.4042e-06
286.8, 1.1054e-06
287.0, 8.7022e-07
287.2, 6.8507e-07
287.4, 5.3931e-07
287.6, 4.2456e-07
287.8, 3.3423e-07
288.0, 3.0197e-07
288.2, 2.9582e-07
288.4, 2.8979e-07
288.6, 2.8389e-07
288.8, 2.781e-07
289.0, 2.7244e-07
289.2, 2.6689e-07
289.4, 2.6145e-07
289.6, 2.5612e-07
289.8, 2.509e-07
290.0, 2.4579e-07
290.2, 2.4078e-07
290.4, 2.3588e-07
290.6, 2.3107e-07
290.8, 2.2637e-07
291.0, 2.2175e-07
291.2, 2.1724e-07
291.4, 2.1281e-07
291.6, 2.0847e-07
291.8, 2.0423e-07
292.0, 2.0007e-07
292.2, 1.9599e-07
292.4, 1.92e-07
292.6, 1.9934e-07
292.8, 2.4035e-07
293.0, 2.8978e-07
293.2, 3.4939e-07
293.4, 4.2125e-07
293.6, 5.079e-07
293.8, 6.1237e-07
294.0, 7.3832e-07
294.2, 8.9019e-07
294.4, 1.0733e-06
294.6, 1.294e-06
294.8, 1.5602e-06
295.0, 1.8811e-06
295.2, 1.8839e-06
295.4, 1.8866e-06
295.6, 1.8893e-06
295.8, 1.7863e-06
296.0, 1.6254e-06
296.2, 1.4789e-06
296.4, 1.3457e-06
296.6, 1.2245e-06
296.8, 1.1141e-06
297.0, 1.0138e-06
297.2, 9.2243e-07
297.4, 8.3932e-07
297.6, 7.6371e-07
297.8, 6.949e-07
298.0, 6.3229e-07
298.2, 5.7533e-07
298.4, 5.235e-07
298.6, 4.7633e-07
298.8, 4.3342e-07
299.0, 3.9437e-07
299.2, 3.5884e-07
299.4, 3.2651e-07
299.6, 2.9709e-07
299.8, 2.7033e-07
300.0, 2.4597e-07
300.2, 2.2381e-07
300.4, 2.0863e-07
300.6, 2.091e-07
300.8, 2.0956e-07
301.0, 2.1003e-07
301.2, 2.105e-07
301.4, 2.1097e-07
301.6, 2.1145e-07
301.8, 2.1192e-07
302.0, 2.1239e-07
302.2, 2.1287e-07
302.4, 2.1335e-07
302.6, 2.1201e-07
302.8, 2.0973e-07
303.0, 2.0748e-07
303.2, 2.0526e-07
303.4, 2.0305e-07
303.6, 2.0087e-07
303.8, 1.9872e-07
304.0, 1.9659e-07
304.2, 1.9448e-07
304.4, 1.9239e-07
304.6, 1.9033e-07
304.8, 1.8828e-07
305.0, 1.8626e-07
305.2, 1.8427e-07
305.4, 1.8229e-07
305.6, 1.8033e-07
305.8, 1.784e-07
306.0, 1.7648e-07
306.2, 1.8759e-07
306.4, 2.028e-07
306.6, 2.1923e-07
306.8, 2.3699e-07
307.0, 2.562e-07
307.2, 2.7695e-07
307.4, 2.994e-07
307.6, 3.2366e-07
307.8, 3.4988e-07
308.0, 3.7823e-07
308.2, 4.0888e-07
308.4, 4.4201e-07
308.6, 4.7783e-07
308.8, 5.1655e-07
309.0, 5.584e-07
309.2, 6.0365e-07
309.4, 6.5256e-07
309.6, 7.0544e-07
309.8, 7.626e-07
310.0, 8.2439e-07
310.2, 8.9119e-07
310.4, 9.6341e-07
310.6, 1.0415e-06
310.8, 1.1259e-06
311.0, 1.2171e-06
311.2, 1.15e-06
311.4, 1.0538e-06
311.6, 9.6571e-07
311.8, 8.8497e-07
312.0, 8.1098e-07
312.2, 7.4318e-07
312.4, 6.8105e-07
312.6, 6.2411e-07
312.8, 5.7193e-07
313.0, 5.2411e-07
313.2, 4.803e-07
313.4, 4.4014e-07
313.6, 4.0334e-07
313.8, 3.6962e-07
314.0, 3.3872e-07
314.2, 3.104e-07
314.4, 2.8445e-07
314.6, 2.6067e-07
314.8, 2.3888e-07
315.0, 2.189e-07
315.2, 2.006e-07
315.4, 1.8383e-07
315.6, 1.6846e-07
315.8, 1.5438e-07
316.0, 1.4147e-07
316.2, 1.5291e-07
316.4, 1.7117e-07
316.6, 1.9161e-07
316.8, 2.145e-07
317.0, 2.4011e-07
317.2, 2.6878e-07
317.4, 3.0088e-07
317.6, 3.368e-07
317.8, 3.7702e-07
318.0, 4.2204e-07
318.2, 4.7244e-07
318.4, 5.2885e-07
318.6, 5.92e-07
318.8, 6.627e-07
319.0, 7.4183e-07
319.2, 8.3041e-07
319.4, 9.2957e-07
319.6, 1.0406e-06
319.8, 1.1648e-06
320.0, 1.3039e-06
320.2, 1.4596e-06
320.4, 1.6339e-06
320.6, 1.829e-06
320.8, 2.0474e-06
321.0, 2.2919e-06
321.2, 2.1203e-06
321.4, 1.8731e-06
321.6, 1.6546e-06
321.8, 1.4617e-06
322.0, 1.2912e-06
322.2, 1.1407e-06
322.4, 1.0076e-06
322.6, 8.9014e-07
322.8, 7.8634e-07
323.0, 6.9464e-07
323.2, 6.1364e-07
323.4, 5.4208e-07
323.6, 4.7887e-07
323.8, 4.2302e-07
324.0, 3.7369e-07
324.2, 3.3012e-07
324.4, 2.9162e-07
324.6, 2.5761e-07
324.8, 2.2757e-07
325.0, 2.0103e-07
325.2, 1.7759e-07
325.4, 1.5688e-07
325.6, 1.3859e-07
325.8, 1.2243e-07
326.0, 1.0815e-07
326.2, 1.0435e-07
326.4, 1.0308e-07
326.6, 1.0182e-07
326.8, 1.0058e-07
327.0, 9.9352e-08
327.2, 9.814e-08
327.4, 9.6943e-08
327.6, 9.576e-08
327.8, 9.4592e-08
328.0, 9.3438e-08
328.2, 9.2298e-08
328.4, 9.1172e-08
328.6, 9.006e-08
328.8, 8.8961e-08
329.0, 8.7875e-08
329.2, 8.6803e-08
329.4, 8.5744e-08
329.6, 8.4698e-08
329.8, 8.3665e-08
330.0, 8.2644e-08
330.2, 8.1636e-08
330.4, 8.064e-08
330.6, 7.9656e-08
330.8, 7.8684e-08
331.0, 7.7724e-08
331.2, 8.4163e-08
331.4, 9.3185e-08
331.6, 1.0317e-07
331.8, 1.1424e-07
332.0, 1.2648e-07
332.2, 1.4004e-07
332.4, 1.5505e-07
332.6, 1.7168e-07
332.8, 1.9008e-07
333.0, 2.1046e-07
333.2, 2.3302e-07
333.4, 2.58e-07
333.6, 2.8566e-07
333.8, 3.1628e-07
334.0, 3.5018e-07
334.2, 3.8772e-07
334.4, 4.2929e-07
334.6, 4.7531e-07
334.8, 5.2626e-07
335.0, 5.8268e-07
335.2, 6.4514e-07
335.4, 7.143e-07
335.6, 7.9088e-07
335.8, 8.7566e-07
336.0, 9.6953e-07
336.2, 9.3838e-07
336.4, 8.818e-07
336.6, 8.2864e-07
336.8, 7.7868e-07
337.0, 7.3173e-07
337.2, 6.8762e-07
337.4, 6.4616e-07
337.6, 6.072e-07
337.8, 5.7059e-07
338.0, 5.3619e-07
338.2, 5.0386e-07
338.4, 4.7348e-07
338.6, 4.4494e-07
338.8, 4.1811e-07
339.0, 3.929e-07
339.2, 3.6921e-07
339.4, 3.4695e-07
339.6, 3.2604e-07
339.8, 3.0638e-07
340.0, 2.8791e-07
340.2, 2.7055e-07
340.4, 2.5424e-07
340.6, 2.3891e-07
340.8, 2.245e-07
341.0, 2.1097e-07
341.2, 2.1192e-07
341.4, 2.1591e-07
341.6, 2.1997e-07
341.8, 2.241e-07
342.0, 2.2832e-07
342.2, 2.3261e-07
342.4, 2.3699e-07
342.6, 2.4145e-07
342.8, 2.4599e-07
343.0, 2.5062e-07
343.2, 2.5533e-07
343.4, 2.6014e-07
343.6, 2.6503e-07
343.8, 2.7001e-07
344.0, 2.7509e-07
344.2, 2.8027e-07
344.4, 2.8554e-07
344.6, 2.9091e-07
344.8, 2.9638e-07
345.0, 3.0196e-07
345.2, 3.0764e-07
345.4, 3.1343e-07
345.6, 3.1932e-07
345.8, 3.2533e-07
346.0, 3.3145e-07
346.2, 3.1994e-07
346.4, 3.0555e-07
346.6, 2.9181e-07
346.8, 2.7869e-07
347.0, 2.6616e-07
347.2, 2.5419e-07
347.4, 2.4276e-07
347.6, 2.3184e-07
347.8, 2.2142e-07
348.0, 2.1146e-07
348.2, 2.0195e-07
348.4, 1.9287e-07
348.6, 1.842e-07
348.8, 1.7591e-07
349.0, 1.68e-07
349.2, 1.6045e-07
349.4, 1.5323e-07
349.6, 1.4634e-07
349.8, 1.3976e-07
350.0, 1.3348e-07
350.2, 1.2748e-07
350.4, 1.2174e-07
350.6, 1.1627e-07
350.8, 1.1104e-07
351.0, 1.0605e-07
351.2, 1.0192e-07
351.4, 9.8074e-08
351.6, 9.4375e-08
351.8, 9.0817e-08
352.0, 8.7392e-08
352.2, 8.4096e-08
352.4, 8.0925e-08
352.6, 7.7873e-08
352.8, 7.4937e-08
353.0, 7.2111e-08
353.2, 6.9392e-08
353.4, 6.6775e-08
353.6, 6.4257e-08
353.8, 6.1834e-08
354.0, 5.9502e-08
354.2, 5.7258e-08
354.4, 5.5099e-08
354.6, 5.3021e-08
354.8, 5.1022e-08
355.0, 4.9098e-08
355.2, 4.7246e-08
355.4, 4.5465e-08
355.6, 4.375e-08
355.8, 4.21e-08
356.0, 4.0513e-08
356.2, 4.0371e-08
356.4, 4.0518e-08
356.6, 4.0666e-08
356.8, 4.0815e-08
357.0, 4.0964e-08
357.2, 4.1113e-08
357.4, 4.1264e-08
357.6, 4.1414e-08
357.8, 4.1566e-08
358.0, 4.1717e-08
358.2, 4.187e-08
358.4, 4.2023e-08
358.6, 4.2176e-08
358.8, 4.233e-08
359.0, 4.2485e-08
359.2, 4.264e-08
359.4, 4.2796e-08
359.6, 4.3901e-08
359.8, 7.1619e-08
360.0, 1.1684e-07
360.2, 1.906e-07
360.4, 3.1094e-07
360.6, 5.0726e-07
360.8, 8.2752e-07
361.0, 1.35e-06
361.2, 2.1849e-06
361.4, 3.2458e-06
361.6, 4.8218e-06
361.8, 5.6745e-06
362.0, 5.4976e-06
362.2, 5.314e-06
362.4, 3.2543e-06
362.6, 3.5603e-06
362.8, 5.7348e-06
363.0, 8.7581e-06
363.2, 5.8048e-06
363.4, 3.8473e-06
363.6, 4.095e-06
363.8, 6.2498e-06
364.0, 5.5709e-06
364.2, 4.9657e-06
364.4, 4.61e-06
364.6, 4.4052e-06
364.8, 4.2348e-06
365.0, 4.6221e-06
365.2, 4.6634e-06
365.4, 4.4601e-06
365.6, 4.087e-06
365.8, 1.7963e-06
366.0, 7.8947e-07
366.2, 1.3234e-06
366.4, 6.2291e-06
366.6, 5.0647e-06
366.8, 4.1179e-06
367.0, 3.6373e-06
367.2, 3.4157e-06
367.4, 3.2e-06
367.6, 2.8094e-06
367.8, 3.3177e-06
368.0, 4.8353e-06
368.2, 6.9378e-06
368.4, 7.1479e-06
368.6, 7.3644e-06
368.8, 6.3547e-06
369.0, 4.6493e-06
369.2, 3.6662e-06
369.4, 2.8909e-06
369.6, 3.2287e-06
369.8, 4.7141e-06
370.0, 6.7518e-06
370.2, 5.1946e-06
370.4, 5.2409e-06
370.6, 6.2214e-06
370.8, 7.2453e-06
371.0, 6.8675e-06
371.2, 6.5093e-06
371.4, 6.5692e-06
371.6, 6.9603e-06
371.8, 7.1211e-06
372.0, 7.2857e-06
372.2, 6.943e-06
372.4, 6.2574e-06
372.6, 5.6708e-06
372.8, 6.7424e-06
373.0, 7.0806e-06
373.2, 6.891e-06
373.4, 6.8088e-06
373.6, 8.0065e-06
373.8, 9.4149e-06
374.0, 9.6987e-06
374.2, 8.994e-06
374.4, 8.7772e-06
374.6, 8.5657e-06
374.8, 8.1242e-06
375.0, 7.5313e-06
375.2, 6.9892e-06
375.4, 6.9602e-06
375.6, 7.5591e-06
375.8, 8.6576e-06
376.0, 9.7847e-06
376.2, 9.5827e-06
376.4, 9.3848e-06
376.6, 8.6989e-06
376.8, 7.9919e-06
377.0, 1.0072e-05
377.2, 1.2692e-05
377.4, 2.1909e-05
377.6, 4.8183e-05
377.8, 1.0763e-04
378.0, 2.2177e-04
378.2, 3.0609e-04
378.4, 4.5624e-04
378.6, 0.00112
378.8, 0.00276
379.0, 0.00771
379.2, 0.03101
379.4, 0.13105
379.6, 0.42386
379.8, 0.75409
380.0, 0.87994
380.2, 0.91158
380.4, 0.92035
380.6, 0.90893
380.8, 0.91441
381.0, 0.92208
381.2, 0.92666
381.4, 0.93138
381.6, 0.93212
381.8, 0.93537
382.0, 0.93646
382.2, 0.93585
382.4, 0.93318
382.6, 0.93005
382.8, 0.92831
383.0, 0.92848
383.2, 0.92954
383.4, 0.9307
383.6, 0.93368
383.8, 0.93516
384.0, 0.93787
384.2, 0.93957
384.4, 0.94378
384.6, 0.94582
384.8, 0.94805
385.0, 0.94724
385.2, 0.94572
385.4, 0.94508
385.6, 0.94539
385.8, 0.94606
386.0, 0.95019
386.2, 0.95179
386.4, 0.95161
386.6, 0.94925
386.8, 0.9499
387.0, 0.95008
387.2, 0.94867
387.4, 0.9511
387.6, 0.9518
387.8, 0.95452
388.0, 0.95616
388.2, 0.95654
388.4, 0.95728
388.6, 0.95582
388.8, 0.95677
389.0, 0.95293
389.2, 0.9542
389.4, 0.9534
389.6, 0.95456
389.8, 0.95628
390.0, 0.95805
390.2, 0.95896
390.4, 0.9607
390.6, 0.95931
390.8, 0.95886
391.0, 0.95996
391.2, 0.95864
391.4, 0.95908
391.6, 0.96059
391.8, 0.95907
392.0, 0.95903
392.2, 0.95832
392.4, 0.95756
392.6, 0.95795
392.8, 0.95902
393.0, 0.95919
393.2, 0.96158
393.4, 0.96075
393.6, 0.96152
393.8, 0.96066
394.0, 0.95997
394.2, 0.95825
394.4, 0.958
394.6, 0.95761
394.8, 0.95767
395.0, 0.96049
395.2, 0.96335
395.4, 0.96611
395.6, 0.96818
395.8, 0.96769
396.0, 0.968
396.2, 0.96761
396.4, 0.96718
396.6, 0.9659
396.8, 0.9658
397.0, 0.96213
397.2, 0.95711
397.4, 0.95652
397.6, 0.95897
397.8, 0.95879
398.0, 0.96095
398.2, 0.95986
398.4, 0.95859
398.6, 0.95692
398.8, 0.95425
399.0, 0.953
399.2, 0.95271
399.4, 0.95231
399.6, 0.95258
399.8, 0.95479
400.0, 0.95597
400.2, 0.95739
400.4, 0.95914
400.6, 0.95776
400.8, 0.95755
401.0, 0.95706
401.2, 0.953
401.4, 0.94951
401.6, 0.94728
401.8, 0.94593
402.0, 0.94652
402.2, 0.94838
402.4, 0.9509
402.6, 0.95312
402.8, 0.95368
403.0, 0.95447
403.2, 0.95399
403.4, 0.95354
403.6, 0.95271
403.8, 0.95016
404.0, 0.94518
404.2, 0.94044
404.4, 0.93565
404.6, 0.93116
404.8, 0.92425
405.0, 0.91702
405.2, 0.91151
405.4, 0.82239
405.6, 0.49974
405.8, 0.32705
406.0, 0.09165
406.2, 0.02443
406.4, 0.00799
406.6, 0.00348
406.8, 0.00209
407.0, 0.00136
407.2, 1.3539e-04
407.4, 5.4153e-05
407.6, 2.166e-05
407.8, 1.0835e-05
408.0, 5.7728e-06
408.2, 3.124e-06
408.4, 1.7714e-06
408.6, 1.5177e-06
408.8, 1.4511e-06
409.0, 1.33e-06
409.2, 1.0777e-06
409.4, 8.7315e-07
409.6, 3.2817e-07
409.8, 1.5507e-07
410.0, 2.3714e-07
410.2, 3.6264e-07
410.4, 2.8211e-07
410.6, 1.8138e-07
410.8, 1.2977e-07
411.0, 1.291e-07
411.2, 2.0251e-07
411.4, 3.4759e-07
411.6, 5.4121e-07
411.8, 6.7131e-07
412.0, 8.3269e-07
412.2, 3.1042e-07
412.4, 1.4781e-07
412.6, 2.5391e-07
412.8, 4.3618e-07
413.0, 4.8754e-07
413.2, 4.8444e-07
413.4, 3.7949e-07
413.6, 1.4567e-07
413.8, 1.1903e-07
414.0, 1.1818e-07
414.2, 1.5081e-07
414.4, 3.8601e-07
414.6, 9.8801e-07
414.8, 3.6541e-07
415.0, 1.1501e-07
415.2, 1.1443e-07
415.4, 1.1386e-07
415.6, 1.1338e-07
415.8, 1.1292e-07
416.0, 1.125e-07
416.2, 1.1219e-07
416.4, 1.1169e-07
416.6, 1.1115e-07
416.8, 1.3295e-07
417.0, 2.6843e-07
417.2, 5.4198e-07
417.4, 7.5717e-07
417.6, 6.7181e-07
417.8, 2.9385e-07
418.0, 1.2853e-07
418.2, 1.0623e-07
418.4, 1.056e-07
418.6, 1.0504e-07
418.8, 1.0466e-07
419.0, 1.0414e-07
419.2, 1.036e-07
419.4, 1.118e-07
419.6, 1.4657e-07
419.8, 1.9215e-07
420.0, 1.423e-07
420.2, 1.0213e-07
420.4, 1.0176e-07
420.6, 1.014e-07
420.8, 1.4136e-07
421.0, 2.1726e-07
421.2, 3.603e-07
421.4, 5.2324e-07
421.6, 3.3725e-07
421.8, 2.1737e-07
422.0, 2.2285e-07
422.2, 2.604e-07
422.4, 2.6898e-07
422.6, 1.9191e-07
422.8, 1.3693e-07
423.0, 9.7693e-08
423.2, 6.9701e-08
423.4, 4.973e-08
423.6, 3.5481e-08
423.8, 2.5315e-08
424.0, 2.0323e-08
424.2, 2.2266e-08
424.4, 2.4395e-08
424.6, 2.6727e-08
424.8, 2.9283e-08
425.0, 3.2082e-08
425.2, 3.515e-08
425.4, 3.8511e-08
425.6, 4.2193e-08
425.8, 4.6227e-08
426.0, 5.0647e-08
426.2, 5.5489e-08
426.4, 6.0795e-08
426.6, 6.6608e-08
426.8, 7.2976e-08
427.0, 7.9954e-08
427.2, 8.7599e-08
427.4, 9.5974e-08
427.6, 9.5967e-08
427.8, 8.9046e-08
428.0, 8.2625e-08
428.2, 7.6666e-08
428.4, 7.1137e-08
428.6, 6.6007e-08
428.8, 6.1247e-08
429.0, 5.683e-08
429.2, 5.2732e-08
429.4, 4.8929e-08
429.6, 4.5401e-08
429.8, 4.2126e-08
430.0, 3.9088e-08
430.2, 3.627e-08
430.4, 3.3654e-08
430.6, 3.1227e-08
430.8, 2.8975e-08
431.0, 2.6886e-08
431.2, 2.4947e-08
431.4, 2.3148e-08
431.6, 2.1478e-08
431.8, 1.9929e-08
432.0, 1.8492e-08
432.2, 1.7159e-08
432.4, 1.5921e-08
432.6, 1.6005e-08
432.8, 1.7249e-08
433.0, 1.8589e-08
433.2, 2.0034e-08
433.4, 2.1591e-08
433.6, 2.3269e-08
433.8, 2.5078e-08
434.0, 2.7027e-08
434.2, 2.9127e-08
434.4, 3.1391e-08
434.6, 3.3831e-08
434.8, 3.646e-08
435.0, 3.9294e-08
435.2, 4.2348e-08
435.4, 4.5639e-08
435.6, 4.9186e-08
435.8, 5.3009e-08
436.0, 5.7129e-08
436.2, 6.1569e-08
436.4, 6.6354e-08
436.6, 7.1511e-08
436.8, 7.7069e-08
437.0, 8.3059e-08
437.2, 8.9514e-08
437.4, 9.6471e-08
437.6, 9.9524e-08
437.8, 9.8616e-08
438.0, 9.7717e-08
438.2, 9.6825e-08
438.4, 9.5942e-08
438.6, 9.5066e-08
438.8, 9.4199e-08
439.0, 9.3339e-08
439.2, 9.2488e-08
439.4, 9.1644e-08
439.6, 9.0807e-08
439.8, 8.9979e-08
440.0, 8.9158e-08
440.2, 8.8344e-08
440.4, 8.7538e-08
440.6, 8.674e-08
440.8, 8.5948e-08
441.0, 8.5164e-08
441.2, 8.4387e-08
441.4, 8.3617e-08
441.6, 8.2854e-08
441.8, 8.2098e-08
442.0, 8.1349e-08
442.2, 8.0607e-08
442.4, 7.9871e-08
442.6, 7.99e-08
442.8, 8.0636e-08
443.0, 8.1379e-08
443.2, 8.2129e-08
443.4, 8.2885e-08
443.6, 8.3648e-08
443.8, 8.4419e-08
444.0, 8.5196e-08
444.2, 8.5981e-08
444.4, 8.6773e-08
444.6, 8.7572e-08
444.8, 8.8379e-08
445.0, 8.9193e-08
445.2, 9.0014e-08
445.4, 9.0843e-08
445.6, 9.168e-08
445.8, 9.2524e-08
446.0, 9.3376e-08
446.2, 9.4236e-08
446.4, 9.5104e-08
446.6, 9.598e-08
446.8, 9.6864e-08
447.0, 9.7756e-08
447.2, 9.8657e-08
447.4, 9.9565e-08
447.6, 9.6503e-08
447.8, 9.0176e-08
448.0, 8.4264e-08
448.2, 7.8739e-08
448.4, 7.3577e-08
448.6, 6.8753e-08
448.8, 6.4246e-08
449.0, 6.0034e-08
449.2, 5.6098e-08
449.4, 5.242e-08
449.6, 4.8983e-08
449.8, 4.5772e-08
450.0, 4.2771e-08
450.2, 3.9967e-08
450.4, 3.7347e-08
450.6, 3.4898e-08
450.8, 3.261e-08
451.0, 3.0472e-08
451.2, 2.8474e-08
451.4, 2.6608e-08
451.6, 2.4863e-08
451.8, 2.3233e-08
452.0, 2.171e-08
452.2, 2.0287e-08
452.4, 1.8957e-08
452.6, 1.9008e-08
452.8, 2.0342e-08
453.0, 2.177e-08
453.2, 2.3297e-08
453.4, 2.4932e-08
453.6, 2.6682e-08
453.8, 2.8554e-08
454.0, 3.0558e-08
454.2, 3.2703e-08
454.4, 3.4997e-08
454.6, 3.7453e-08
454.8, 4.0082e-08
455.0, 4.2894e-08
455.2, 4.5905e-08
455.4, 4.9126e-08
455.6, 5.2573e-08
455.8, 5.6263e-08
456.0, 6.0211e-08
456.2, 6.4436e-08
456.4, 6.8958e-08
456.6, 7.3797e-08
456.8, 7.8976e-08
457.0, 8.4518e-08
457.2, 9.045e-08
457.4, 9.6797e-08
457.6, 1.0e-07
457.8, 1.0e-07
458.0, 1.0e-07
458.2, 1.0e-07
458.4, 1.0e-07
458.6, 1.0e-07
458.8, 1.0e-07
459.0, 1.0e-07
459.2, 1.0e-07
459.4, 1.0e-07
459.6, 1.0e-07
459.8, 1.0e-07
460.0, 1.0e-07
460.2, 1.0e-07
460.4, 1.0e-07
460.6, 1.0e-07
460.8, 1.0e-07
461.0, 1.0e-07
461.2, 1.0e-07
461.4, 1.0e-07
461.6, 1.0e-07
461.8, 1.0e-07
462.0, 1.0e-07
462.2, 1.0e-07
462.4, 1.0e-07
462.6, 1.0e-07
462.8, 1.0e-07
463.0, 1.0e-07
463.2, 1.0e-07
463.4, 1.0e-07
463.6, 1.0e-07
463.8, 1.0e-07
464.0, 1.0e-07
464.2, 1.0e-07
464.4, 1.0e-07
464.6, 1.0e-07
464.8, 1.0e-07
465.0, 1.0e-07
465.2, 1.0e-07
465.4, 1.0e-07
465.6, 1.0e-07
465.8, 1.0e-07
466.0, 1.0e-07
466.2, 1.0e-07
466.4, 1.0e-07
466.6, 1.0e-07
466.8, 1.0e-07
467.0, 1.0e-07
467.2, 1.0e-07
467.4, 1.0e-07
467.6, 9.7388e-08
467.8, 9.2464e-08
468.0, 8.7789e-08
468.2, 8.335e-08
468.4, 7.9135e-08
468.6, 7.5134e-08
468.8, 7.1335e-08
469.0, 6.7728e-08
469.2, 6.4303e-08
469.4, 6.1052e-08
469.6, 5.7965e-08
469.8, 5.5034e-08
470.0, 5.2251e-08
470.2, 4.9609e-08
470.4, 4.7101e-08
470.6, 4.4719e-08
470.8, 4.2458e-08
471.0, 4.0311e-08
471.2, 3.8273e-08
471.4, 3.6338e-08
471.6, 3.45e-08
471.8, 3.2756e-08
472.0, 3.1099e-08
472.2, 2.9527e-08
472.4, 2.8034e-08
472.6, 2.7089e-08
472.8, 2.6604e-08
473.0, 2.6127e-08
473.2, 2.5659e-08
473.4, 2.52e-08
473.6, 2.4748e-08
473.8, 2.4305e-08
474.0, 2.387e-08
474.2, 2.3443e-08
474.4, 2.3023e-08
474.6, 2.261e-08
474.8, 2.2206e-08
475.0, 2.1808e-08
475.2, 2.1417e-08
475.4, 2.1034e-08
475.6, 2.0657e-08
475.8, 2.0287e-08
476.0, 1.9924e-08
476.2, 1.9567e-08
476.4, 1.9217e-08
476.6, 1.8873e-08
476.8, 1.9305e-08
477.0, 2.123e-08
477.2, 2.3347e-08
477.4, 2.5675e-08
477.6, 2.8235e-08
477.8, 3.105e-08
478.0, 3.4146e-08
478.2, 3.7551e-08
478.4, 4.1295e-08
478.6, 4.5413e-08
478.8, 4.9941e-08
479.0, 5.4921e-08
479.2, 6.0397e-08
479.4, 6.6419e-08
479.6, 7.3042e-08
479.8, 8.0325e-08
480.0, 8.8335e-08
480.2, 9.7143e-08
480.4, 1.0e-07
480.6, 1.0e-07
480.8, 1.0e-07
481.0, 1.0e-07
481.2, 1.0e-07
481.4, 1.0e-07
481.6, 1.0e-07
481.8, 1.0e-07
482.0, 1.0e-07
482.2, 1.0e-07
482.4, 1.0e-07
482.6, 1.0e-07
482.8, 1.0e-07
483.0, 1.0e-07
483.2, 9.6928e-08
483.4, 9.3474e-08
483.6, 9.0143e-08
483.8, 8.6931e-08
484.0, 8.3833e-08
484.2, 8.0846e-08
484.4, 7.7965e-08
484.6, 7.5187e-08
484.8, 7.2508e-08
485.0, 6.9924e-08
485.2, 6.7433e-08
485.4, 6.5669e-08
485.6, 6.5392e-08
485.8, 6.5117e-08
486.0, 6.4843e-08
486.2, 6.457e-08
486.4, 6.4298e-08
486.6, 6.4028e-08
486.8, 6.3758e-08
487.0, 6.349e-08
487.2, 6.3223e-08
487.4, 6.2957e-08
487.6, 6.2692e-08
487.8, 6.2428e-08
488.0, 6.2165e-08
488.2, 6.1903e-08
488.4, 6.1643e-08
488.6, 6.1383e-08
488.8, 6.1125e-08
489.0, 6.0868e-08
489.2, 6.2229e-08
489.4, 6.3928e-08
489.6, 6.5674e-08
489.8, 6.7468e-08
490.0, 6.931e-08
490.2, 7.1203e-08
490.4, 7.3148e-08
490.6, 7.5146e-08
490.8, 7.7198e-08
491.0, 7.9306e-08
491.2, 8.1472e-08
491.4, 8.3697e-08
491.6, 8.5983e-08
491.8, 8.8331e-08
492.0, 9.0743e-08
492.2, 9.3222e-08
492.4, 9.5768e-08
492.6, 9.8383e-08
492.8, 1.0e-07
493.0, 1.0e-07
493.2, 1.0e-07
493.4, 1.0e-07
493.6, 1.0e-07
493.8, 1.0e-07
494.0, 1.0e-07
494.2, 1.0e-07
494.4, 1.0e-07
494.6, 1.0e-07
494.8, 1.0e-07
495.0, 1.0e-07
495.2, 1.0e-07
495.4, 1.0e-07
495.6, 1.0e-07
495.8, 1.0e-07
496.0, 1.0e-07
496.2, 1.0e-07
496.4, 1.0e-07
496.6, 1.0e-07
496.8, 1.0e-07
497.0, 1.0e-07
497.2, 1.0e-07
497.4, 1.0e-07
497.6, 1.0e-07
497.8, 1.0e-07
498.0, 1.0e-07
498.2, 1.0e-07
498.4, 1.0e-07
498.6, 1.0e-07
498.8, 1.0e-07
499.0, 1.0e-07
499.2, 1.0e-07
499.4, 1.0e-07
499.6, 1.0e-07
499.8, 1.0e-07
500.0, 1.0e-07
500.2, 1.0e-07
500.4, 1.0e-07
500.6, 1.0e-07
500.8, 9.7081e-08
501.0, 8.6024e-08
501.2, 7.6227e-08
501.4, 6.7545e-08
501.6, 5.9853e-08
501.8, 5.3036e-08
502.0, 4.6996e-08
502.2, 4.1643e-08
502.4, 3.69e-08
502.6, 3.2698e-08
502.8, 2.8974e-08
503.0, 2.5674e-08
503.2, 2.275e-08
503.4, 2.0159e-08
503.6, 1.7863e-08
503.8, 1.5829e-08
504.0, 1.4026e-08
504.2, 1.2428e-08
504.4, 1.1013e-08
504.6, 1.17e-08
504.8, 1.3204e-08
505.0, 1.4903e-08
505.2, 1.6819e-08
505.4, 1.8982e-08
505.6, 2.1423e-08
505.8, 2.4178e-08
506.0, 2.7288e-08
506.2, 3.0797e-08
506.4, 3.4758e-08
506.6, 3.9228e-08
506.8, 4.4272e-08
507.0, 4.9966e-08
507.2, 5.6392e-08
507.4, 6.3644e-08
507.6, 7.1829e-08
507.8, 8.1066e-08
508.0, 9.1492e-08
508.2, 1.0e-07
508.4, 1.0e-07
508.6, 1.0e-07
508.8, 1.0e-07
509.0, 1.0e-07
509.2, 1.0e-07
509.4, 1.0e-07
509.6, 1.0e-07
509.8, 1.0e-07
510.0, 1.0e-07
510.2, 1.0e-07
510.4, 1.0e-07
510.6, 1.0e-07
510.8, 1.0e-07
511.0, 1.0e-07
511.2, 1.0e-07
511.4, 1.0e-07
511.6, 1.0e-07
511.8, 1.0e-07
512.0, 1.0e-07
512.2, 1.0e-07
512.4, 1.0e-07
512.6, 1.0e-07
512.8, 1.0e-07
513.0, 1.0e-07
513.2, 1.0e-07
513.4, 1.0e-07
513.6, 1.0e-07
513.8, 1.0e-07
514.0, 1.0e-07
514.2, 1.0e-07
514.4, 1.0e-07
514.6, 1.0e-07
514.8, 1.0e-07
515.0, 1.0e-07
515.2, 1.0e-07
515.4, 1.0e-07
515.6, 1.0e-07
515.8, 1.0e-07
516.0, 1.0e-07
516.2, 1.0e-07
516.4, 1.0e-07
516.6, 1.0e-07
516.8, 1.0e-07
517.0, 1.0e-07
517.2, 1.0e-07
517.4, 1.0e-07
517.6, 1.0e-07
517.8, 1.0e-07
518.0, 1.0e-07
518.2, 1.0e-07
518.4, 1.0e-07
518.6, 1.0e-07
518.8, 1.0e-07
519.0, 1.0e-07
519.2, 1.0e-07
519.4, 1.0e-07
519.6, 1.0e-07
519.8, 1.0e-07
520.0, 1.0e-07
520.2, 1.0e-07
520.4, 1.0e-07
520.6, 1.0e-07
520.8, 1.0e-07
521.0, 1.0e-07
521.2, 1.0e-07
521.4, 1.0e-07
521.6, 1.0e-07
521.8, 1.0e-07
522.0, 1.0e-07
522.2, 1.0e-07
522.4, 1.0e-07
522.6, 1.0e-07
522.8, 1.0e-07
523.0, 1.0e-07
523.2, 1.0e-07
523.4, 1.0e-07
523.6, 1.0e-07
523.8, 1.0e-07
524.0, 1.0e-07
524.2, 1.0e-07
524.4, 1.0e-07
524.6, 1.0e-07
524.8, 1.0e-07
525.0, 1.0e-07
525.2, 1.0e-07
525.4, 1.0e-07
525.6, 1.0e-07
525.8, 1.0e-07
526.0, 1.0e-07
526.2, 1.0e-07
526.4, 1.0e-07
526.6, 1.0e-07
526.8, 1.0e-07
527.0, 1.0e-07
527.2, 1.0e-07
527.4, 1.0e-07
527.6, 1.0e-07
527.8, 1.0e-07
528.0, 1.0e-07
528.2, 1.0e-07
528.4, 1.0e-07
528.6, 1.0e-07
528.8, 1.0e-07
529.0, 1.0e-07
529.2, 1.0e-07
529.4, 1.0e-07
529.6, 1.0e-07
529.8, 1.0e-07
530.0, 1.0e-07
530.2, 1.0e-07
530.4, 1.0e-07
530.6, 1.0e-07
530.8, 1.0e-07
531.0, 1.0e-07
531.2, 1.0e-07
531.4, 1.0e-07
531.6, 1.0e-07
531.8, 1.0e-07
532.0, 1.0e-07
532.2, 1.0e-07
532.4, 1.0e-07
532.6, 1.0e-07
532.8, 1.0e-07
533.0, 1.0e-07
533.2, 1.0e-07
533.4, 1.0e-07
533.6, 1.0e-07
533.8, 1.0e-07
534.0, 1.0e-07
534.2, 1.0e-07
534.4, 1.0e-07
534.6, 1.0e-07
534.8, 1.0e-07
535.0, 1.0e-07
535.2, 1.0e-07
535.4, 1.0e-07
535.6, 1.0e-07
535.8, 1.0e-07
536.0, 1.0e-07
536.2, 1.0e-07
536.4, 1.0e-07
536.6, 1.0e-07
536.8, 1.0e-07
537.0, 1.0e-07
537.2, 1.0e-07
537.4, 1.0e-07
537.6, 1.0e-07
537.8, 1.0e-07
538.0, 1.0e-07
538.2, 1.0e-07
538.4, 1.0e-07
538.6, 1.0e-07
538.8, 1.0e-07
539.0, 1.0e-07
539.2, 1.0e-07
539.4, 1.0e-07
539.6, 1.0e-07
539.8, 1.0e-07
540.0, 1.0e-07
540.2, 1.0e-07
540.4, 1.0e-07
540.6, 1.0e-07
540.8, 1.0e-07
541.0, 1.0e-07
541.2, 1.0e-07
541.4, 1.0e-07
541.6, 1.0e-07
541.8, 1.0e-07
542.0, 1.0e-07
542.2, 1.0e-07
542.4, 1.0e-07
542.6, 1.0e-07
542.8, 1.0e-07
543.0, 1.0e-07
543.2, 5.8187e-08
543.4, 3.3857e-08
543.6, 1.97e-08
543.8, 1.7209e-08
544.0, 1.6748e-08
544.2, 1.6299e-08
544.4, 1.5862e-08
544.6, 1.5437e-08
544.8, 1.5023e-08
545.0, 1.462e-08
545.2, 1.4228e-08
545.4, 1.3847e-08
545.6, 1.3476e-08
545.8, 1.3114e-08
546.0, 1.2763e-08
546.2, 1.2421e-08
546.4, 1.2088e-08
546.6, 1.1764e-08
546.8, 1.1448e-08
547.0, 1.1141e-08
547.2, 1.0843e-08
547.4, 1.1049e-08
547.6, 1.2473e-08
547.8, 1.4081e-08
548.0, 1.5897e-08
548.2, 1.7947e-08
548.4, 2.026e-08
548.6, 2.2872e-08
548.8, 2.5821e-08
549.0, 2.9151e-08
549.2, 3.2909e-08
549.4, 3.7152e-08
549.6, 4.1942e-08
549.8, 4.7349e-08
550.0, 5.3454e-08
550.2, 6.0345e-08
550.4, 6.8126e-08
550.6, 7.6909e-08
550.8, 8.6825e-08
551.0, 9.8019e-08
551.2, 1.0e-07
551.4, 1.0e-07
551.6, 1.0e-07
551.8, 1.0e-07
552.0, 1.0e-07
552.2, 1.0e-07
552.4, 1.0e-07
552.6, 1.0e-07
552.8, 1.0e-07
553.0, 1.0e-07
553.2, 1.0e-07
553.4, 1.0e-07
553.6, 1.0e-07
553.8, 1.0e-07
554.0, 1.0e-07
554.2, 1.0e-07
554.4, 1.0e-07
554.6, 1.0e-07
554.8, 1.0e-07
555.0, 1.0e-07
555.2, 1.0e-07
555.4, 1.0e-07
555.6, 1.0e-07
555.8, 1.0e-07
556.0, 1.0e-07
556.2, 1.0e-07
556.4, 1.0e-07
556.6, 1.0e-07
556.8, 1.0e-07
557.0, 1.0e-07
557.2, 1.0e-07
557.4, 1.0e-07
557.6, 1.0e-07
557.8, 1.0e-07
558.0, 1.0e-07
558.2, 1.0e-07
558.4, 1.0e-07
558.6, 9.0017e-08
558.8, 8.0294e-08
559.0, 7.162e-08
559.2, 6.3884e-08
559.4, 5.6983e-08
559.6, 5.0828e-08
559.8, 4.5337e-08
560.0, 4.044e-08
560.2, 3.6072e-08
560.4, 3.2175e-08
560.6, 2.87e-08
560.8, 2.56e-08
561.0, 2.2834e-08
561.2, 2.0368e-08
561.4, 1.8168e-08
561.6, 1.6205e-08
561.8, 1.4455e-08
562.0, 1.2893e-08
562.2, 1.2835e-08
562.4, 1.439e-08
562.6, 1.6134e-08
562.8, 1.8089e-08
563.0, 2.028e-08
563.2, 2.2738e-08
563.4, 2.5493e-08
563.6, 2.8582e-08
563.8, 3.2045e-08
564.0, 3.5928e-08
564.2, 4.0282e-08
564.4, 4.5163e-08
564.6, 5.0635e-08
564.8, 5.6771e-08
565.0, 6.365e-08
565.2, 7.1362e-08
565.4, 8.0009e-08
565.6, 8.9704e-08
565.8, 1.0e-07
566.0, 1.0e-07
566.2, 1.0e-07
566.4, 1.0e-07
566.6, 1.0e-07
566.8, 1.0e-07
567.0, 1.0e-07
567.2, 1.0e-07
567.4, 1.0e-07
567.6, 1.0e-07
567.8, 1.0e-07
568.0, 1.0e-07
568.2, 1.0e-07
568.4, 1.0e-07
568.6, 1.0e-07
568.8, 1.0e-07
569.0, 1.0e-07
569.2, 1.0e-07
569.4, 1.0e-07
569.6, 1.0e-07
569.8, 1.0e-07
570.0, 1.0e-07
570.2, 1.0e-07
570.4, 1.0e-07
570.6, 1.0e-07
570.8, 1.0e-07
571.0, 1.0e-07
571.2, 1.0e-07
571.4, 1.0e-07
571.6, 1.0e-07
571.8, 1.0e-07
572.0, 1.0e-07
572.2, 1.0e-07
572.4, 1.0e-07
572.6, 1.0e-07
572.8, 1.0e-07
573.0, 1.0e-07
573.2, 1.0e-07
573.4, 1.0e-07
573.6, 1.0e-07
573.8, 1.0e-07
574.0, 1.0e-07
574.2, 1.0e-07
574.4, 1.0e-07
574.6, 1.0e-07
574.8, 1.0e-07
575.0, 1.0e-07
575.2, 1.0e-07
575.4, 1.0e-07
575.6, 1.0e-07
575.8, 1.0e-07
576.0, 1.0e-07
576.2, 1.0e-07
576.4, 1.0e-07
576.6, 1.0e-07
576.8, 1.0e-07
577.0, 1.0e-07
577.2, 1.0e-07
577.4, 1.0e-07
577.6, 1.0e-07
577.8, 1.0e-07
578.0, 1.0e-07
578.2, 1.0e-07
578.4, 1.0e-07
578.6, 1.0e-07
578.8, 1.0e-07
579.0, 1.0e-07
579.2, 1.0e-07
579.4, 1.0e-07
579.6, 1.0e-07
579.8, 1.0e-07
580.0, 1.0e-07
580.2, 1.0e-07
580.4, 1.0e-07
580.6, 1.0e-07
580.8, 1.0e-07
581.0, 1.0e-07
581.2, 1.0e-07
581.4, 1.0e-07
581.6, 1.0e-07
581.8, 1.0e-07
582.0, 1.0e-07
582.2, 1.0e-07
582.4, 1.0e-07
582.6, 1.0e-07
582.8, 1.0e-07
583.0, 1.0e-07
583.2, 1.0e-07
583.4, 1.0e-07
583.6, 1.0e-07
583.8, 1.0e-07
584.0, 1.0e-07
584.2, 1.0e-07
584.4, 1.0e-07
584.6, 1.0e-07
584.8, 1.0e-07
585.0, 1.0e-07
585.2, 1.0e-07
585.4, 1.0e-07
585.6, 1.0e-07
585.8, 1.0e-07
586.0, 1.0e-07
586.2, 1.0e-07
586.4, 1.0e-07
586.6, 1.0e-07
586.8, 1.0e-07
587.0, 1.0e-07
587.2, 1.0e-07
587.4, 1.0e-07
587.6, 1.0e-07
587.8, 1.0e-07
588.0, 9.2312e-08
588.2, 8.1996e-08
588.4, 7.2832e-08
588.6, 6.4693e-08
588.8, 5.7463e-08
589.0, 5.1041e-08
589.2, 4.5337e-08
589.4, 4.027e-08
589.6, 3.577e-08
589.8, 3.1772e-08
590.0, 2.8222e-08
590.2, 2.5068e-08
590.4, 2.2266e-08
590.6, 1.9778e-08
590.8, 1.7567e-08
591.0, 1.5604e-08
591.2, 1.386e-08
591.4, 1.2311e-08
591.6, 1.1783e-08
591.8, 1.3267e-08
592.0, 1.4937e-08
592.2, 1.6817e-08
592.4, 1.8935e-08
592.6, 2.1318e-08
592.8, 2.4002e-08
593.0, 2.7024e-08
593.2, 3.0426e-08
593.4, 3.4256e-08
593.6, 3.8568e-08
593.8, 4.3424e-08
594.0, 4.889e-08
594.2, 5.5045e-08
594.4, 6.1975e-08
594.6, 6.9777e-08
594.8, 7.8561e-08
595.0, 8.8451e-08
595.2, 9.9586e-08
595.4, 1.0e-07
595.6, 1.0e-07
595.8, 1.0e-07
596.0, 1.0e-07
596.2, 1.0e-07
596.4, 1.0e-07
596.6, 1.0e-07
596.8, 1.0e-07
597.0, 1.0e-07
597.2, 1.0e-07
597.4, 1.0e-07
597.6, 1.0e-07
597.8, 1.0e-07
598.0, 1.0e-07
598.2, 1.0e-07
598.4, 1.0e-07
598.6, 1.0e-07
598.8, 1.0e-07
599.0, 1.0e-07
599.2, 1.0e-07
599.4, 1.0e-07
599.6, 1.0e-07
599.8, 1.0e-07
600.0, 1.0e-07
600.2, 1.0e-07
600.4, 1.0e-07
600.6, 1.0e-07
600.8, 1.0e-07
601.0, 1.0e-07
601.2, 1.0e-07
601.4, 1.0e-07
601.6, 1.0e-07
601.8, 1.0e-07
602.0, 1.0e-07
602.2, 1.0e-07
602.4, 1.0e-07
602.6, 1.0e-07
602.8, 1.0e-07
603.0, 1.0e-07
603.2, 1.0e-07
603.4, 1.0e-07
603.6, 1.0e-07
603.8, 1.0e-07
604.0, 1.0e-07
604.2, 1.0e-07
604.4, 1.0e-07
604.6, 1.0e-07
604.8, 1.0e-07
605.0, 1.0e-07
605.2, 1.0e-07
605.4, 1.0e-07
605.6, 1.0e-07
605.8, 1.0e-07
606.0, 1.0e-07
606.2, 1.0e-07
606.4, 1.0e-07
606.6, 1.0e-07
606.8, 1.0e-07
607.0, 1.0e-07
607.2, 1.0e-07
607.4, 1.0e-07
607.6, 1.0e-07
607.8, 1.0e-07
608.0, 1.0e-07
608.2, 1.0e-07
608.4, 1.0e-07
608.6, 1.0e-07
608.8, 1.0e-07
609.0, 1.0e-07
609.2, 1.0e-07
609.4, 1.0e-07
609.6, 1.0e-07
609.8, 1.0e-07
610.0, 1.0e-07
610.2, 1.0e-07
610.4, 1.0e-07
610.6, 1.0e-07
610.8, 1.0e-07
611.0, 1.0e-07
611.2, 1.0e-07
611.4, 1.0e-07
611.6, 1.0e-07
611.8, 1.0e-07
612.0, 1.0e-07
612.2, 1.0e-07
612.4, 1.0e-07
612.6, 1.0e-07
612.8, 1.0e-07
613.0, 1.0e-07
613.2, 1.0e-07
613.4, 1.0e-07
613.6, 1.0e-07
613.8, 1.0e-07
614.0, 1.0e-07
614.2, 1.0e-07
614.4, 1.0e-07
614.6, 1.0e-07
614.8, 1.0e-07
615.0, 1.0e-07
615.2, 1.0e-07
615.4, 1.0e-07
615.6, 1.0e-07
615.8, 1.0e-07
616.0, 1.0e-07
616.2, 1.0e-07
616.4, 1.0e-07
616.6, 1.0e-07
616.8, 1.0e-07
617.0, 1.0e-07
617.2, 1.0e-07
617.4, 1.0e-07
617.6, 1.0e-07
617.8, 1.0e-07
618.0, 1.0e-07
618.2, 1.0e-07
618.4, 1.0e-07
618.6, 1.0e-07
618.8, 1.0e-07
619.0, 1.0e-07
619.2, 1.0e-07
619.4, 1.0e-07
619.6, 1.0e-07
619.8, 1.0e-07
620.0, 8.9277e-08
620.2, 7.9567e-08
620.4, 7.0912e-08
620.6, 6.3199e-08
620.8, 5.6325e-08
621.0, 5.0199e-08
621.2, 4.4739e-08
621.4, 3.9873e-08
621.6, 3.5536e-08
621.8, 3.1671e-08
622.0, 2.8226e-08
622.2, 2.5156e-08
622.4, 2.242e-08
622.6, 1.9981e-08
622.8, 1.7808e-08
623.0, 1.5871e-08
623.2, 1.4145e-08
623.4, 1.2606e-08
623.6, 1.293e-08
623.8, 1.4508e-08
624.0, 1.6279e-08
624.2, 1.8267e-08
624.4, 2.0497e-08
624.6, 2.2999e-08
624.8, 2.5807e-08
625.0, 2.8957e-08
625.2, 3.2492e-08
625.4, 3.6459e-08
625.6, 4.0909e-08
625.8, 4.5903e-08
626.0, 5.1507e-08
626.2, 5.7795e-08
626.4, 6.4851e-08
626.6, 7.2767e-08
626.8, 8.1651e-08
627.0, 9.1618e-08
627.2, 1.0e-07
627.4, 1.0e-07
627.6, 1.0e-07
627.8, 1.0e-07
628.0, 1.0e-07
628.2, 1.0e-07
628.4, 1.0e-07
628.6, 1.0e-07
628.8, 1.0e-07
629.0, 1.0e-07
629.2, 1.0e-07
629.4, 1.0e-07
629.6, 1.0e-07
629.8, 1.0e-07
630.0, 1.0e-07
630.2, 1.0e-07
630.4, 1.0e-07
630.6, 1.0e-07
630.8, 1.0e-07
631.0, 1.0e-07
631.2, 1.0e-07
631.4, 1.0e-07
631.6, 1.0e-07
631.8, 1.0e-07
632.0, 1.0e-07
632.2, 1.0e-07
632.4, 1.0e-07
632.6, 1.0e-07
632.8, 1.0e-07
633.0, 1.0e-07
633.2, 1.0e-07
633.4, 1.0e-07
633.6, 1.0e-07
633.8, 1.0e-07
634.0, 1.0e-07
634.2, 1.0e-07
634.4, 1.0e-07
634.6, 1.0e-07
634.8, 1.0e-07
635.0, 1.0e-07
635.2, 1.0e-07
635.4, 1.0e-07
635.6, 1.0e-07
635.8, 1.0e-07
636.0, 1.0e-07
636.2, 1.0e-07
636.4, 1.0e-07
636.6, 1.0e-07
636.8, 1.0e-07
637.0, 1.0e-07
637.2, 1.0e-07
637.4, 1.0e-07
637.6, 1.0e-07
637.8, 1.0e-07
638.0, 1.0e-07
638.2, 9.8041e-08
638.4, 8.8806e-08
638.6, 8.0441e-08
638.8, 7.2865e-08
639.0, 6.6001e-08
639.2, 5.9785e-08
639.4, 5.4153e-08
639.6, 4.9053e-08
639.8, 4.4432e-08
640.0, 4.0247e-08
640.2, 3.6456e-08
640.4, 3.3022e-08
640.6, 2.9912e-08
640.8, 2.7094e-08
641.0, 2.4542e-08
641.2, 2.2231e-08
641.4, 2.0137e-08
641.6, 1.824e-08
641.8, 1.6522e-08
642.0, 1.7795e-08
642.2, 1.9647e-08
642.4, 2.1691e-08
642.6, 2.3948e-08
642.8, 2.644e-08
643.0, 2.919e-08
643.2, 3.2228e-08
643.4, 3.5581e-08
643.6, 3.9283e-08
643.8, 4.337e-08
644.0, 4.7882e-08
644.2, 5.2864e-08
644.4, 5.8365e-08
644.6, 6.4437e-08
644.8, 7.1142e-08
645.0, 7.8544e-08
645.2, 8.6716e-08
645.4, 9.5738e-08
645.6, 1.0e-07
645.8, 1.0e-07
646.0, 1.0e-07
646.2, 1.0e-07
646.4, 1.0e-07
646.6, 1.0e-07
646.8, 1.0e-07
647.0, 1.0e-07
647.2, 1.0e-07
647.4, 1.0e-07
647.6, 1.0e-07
647.8, 1.0e-07
648.0, 1.0e-07
648.2, 1.0e-07
648.4, 1.0e-07
648.6, 1.0e-07
648.8, 1.0e-07
649.0, 1.0e-07
649.2, 1.0e-07
649.4, 1.0e-07
649.6, 1.0e-07
649.8, 1.0e-07
650.0, 1.0e-07
650.2, 1.0e-07
650.4, 1.0e-07
650.6, 1.0e-07
650.8, 1.0e-07
651.0, 1.0e-07
651.2, 1.0e-07
651.4, 1.0e-07
651.6, 1.0e-07
651.8, 1.0e-07
652.0, 1.0e-07
652.2, 1.0e-07
652.4, 1.0e-07
652.6, 1.0e-07
652.8, 1.0e-07
653.0, 9.0768e-08
653.2, 8.2056e-08
653.4, 7.418e-08
653.6, 6.706e-08
653.8, 6.0624e-08
654.0, 5.4805e-08
654.2, 4.9545e-08
654.4, 4.479e-08
654.6, 4.0491e-08
654.8, 3.6604e-08
655.0, 3.3091e-08
655.2, 2.9915e-08
655.4, 2.7044e-08
655.6, 2.4448e-08
655.8, 2.2102e-08
656.0, 1.998e-08
656.2, 1.8063e-08
656.4, 1.6329e-08
656.6, 1.69e-08
656.8, 1.8696e-08
657.0, 2.0682e-08
657.2, 2.288e-08
657.4, 2.5311e-08
657.6, 2.8001e-08
657.8, 3.0976e-08
658.0, 3.4268e-08
658.2, 3.7909e-08
658.4, 4.1938e-08
658.6, 4.6394e-08
658.8, 5.1324e-08
659.0, 5.6778e-08
659.2, 6.2811e-08
659.4, 6.9485e-08
659.6, 7.6869e-08
659.8, 8.5037e-08
660.0, 9.4073e-08
660.2, 1.0e-07
660.4, 1.0e-07
660.6, 1.0e-07
660.8, 1.0e-07
661.0, 1.0e-07
661.2, 1.0e-07
661.4, 1.0e-07
661.6, 1.0e-07
661.8, 1.0e-07
662.0, 1.0e-07
662.2, 1.0e-07
662.4, 1.0e-07
662.6, 1.0e-07
662.8, 1.0e-07
663.0, 1.0e-07
663.2, 1.0e-07
663.4, 1.0e-07
663.6, 1.0e-07
663.8, 1.0e-07
664.0, 1.0e-07
664.2, 1.0e-07
664.4, 1.0e-07
664.6, 1.0e-07
664.8, 1.0e-07
665.0, 1.0e-07
665.2, 1.0e-07
665.4, 1.0e-07
665.6, 1.0e-07
665.8, 1.0e-07
666.0, 1.0e-07
666.2, 1.0e-07
666.4, 1.0e-07
666.6, 1.0e-07
666.8, 1.0e-07
667.0, 1.0e-07
667.2, 1.0e-07
667.4, 1.0e-07
667.6, 9.2082e-08
667.8, 8.3797e-08
668.0, 7.6258e-08
668.2, 6.9397e-08
668.4, 6.3153e-08
668.6, 5.7471e-08
668.8, 5.2301e-08
669.0, 4.7595e-08
669.2, 4.3313e-08
669.4, 3.9416e-08
669.6, 3.587e-08
669.8, 3.2643e-08
670.0, 2.9706e-08
670.2, 2.7033e-08
670.4, 2.4601e-08
670.6, 2.2388e-08
670.8, 2.0373e-08
671.0, 1.854e-08
671.2, 2.0037e-08
671.4, 2.3956e-08
671.6, 2.8641e-08
671.8, 3.4242e-08
672.0, 4.0939e-08
672.2, 4.8945e-08
672.4, 5.8517e-08
672.6, 6.9961e-08
672.8, 8.3642e-08
673.0, 1.0e-07
673.2, 1.0e-07
673.4, 1.0e-07
673.6, 1.0e-07
673.8, 1.0e-07
674.0, 1.0e-07
674.2, 1.0e-07
674.4, 1.0e-07
674.6, 1.0e-07
674.8, 1.0e-07
675.0, 1.0e-07
675.2, 1.0e-07
675.4, 1.0e-07
675.6, 1.0e-07
675.8, 1.0e-07
676.0, 1.0e-07
676.2, 1.0e-07
676.4, 1.0e-07
676.6, 1.0e-07
676.8, 1.0e-07
677.0, 1.0e-07
677.2, 1.0e-07
677.4, 1.0e-07
677.6, 1.0e-07
677.8, 1.0e-07
678.0, 1.0e-07
678.2, 1.0e-07
678.4, 1.0e-07
678.6, 1.0e-07
678.8, 1.0e-07
679.0, 1.0e-07
679.2, 1.0e-07
679.4, 1.0e-07
679.6, 1.0e-07
679.8, 1.0e-07
680.0, 1.0e-07
680.2, 1.0e-07
680.4, 1.0e-07
680.6, 1.0e-07
680.8, 1.0e-07
681.0, 1.0e-07
681.2, 1.0e-07
681.4, 1.0e-07
681.6, 1.0e-07
681.8, 1.0e-07
682.0, 1.0e-07
682.2, 1.0e-07
682.4, 1.0e-07
682.6, 1.0e-07
682.8, 1.0e-07
683.0, 1.0e-07
683.2, 1.0e-07
683.4, 1.0e-07
683.6, 1.0e-07
683.8, 1.0e-07
684.0, 1.0e-07
684.2, 1.0e-07
684.4, 1.0e-07
684.6, 1.0e-07
684.8, 1.0e-07
685.0, 1.0e-07
685.2, 1.0e-07
685.4, 1.0e-07
685.6, 1.0e-07
685.8, 1.0e-07
686.0, 1.0e-07
686.2, 1.0e-07
686.4, 1.0e-07
686.6, 1.0e-07
686.8, 1.0e-07
687.0, 1.0e-07
687.2, 1.0e-07
687.4, 1.0e-07
687.6, 1.0e-07
687.8, 1.0e-07
688.0, 1.0e-07
688.2, 1.0e-07
688.4, 1.0e-07
688.6, 1.0e-07
688.8, 1.0e-07
689.0, 1.0e-07
689.2, 1.0e-07
689.4, 1.0e-07
689.6, 1.0e-07
689.8, 1.0e-07
690.0, 1.0e-07
690.2, 1.0e-07
690.4, 1.0e-07
690.6, 1.0e-07
690.8, 1.0e-07
691.0, 1.0e-07
691.2, 1.0e-07
691.4, 1.0e-07
691.6, 1.0e-07
691.8, 1.0e-07
692.0, 1.0e-07
692.2, 1.0e-07
692.4, 9.0634e-08
692.6, 8.1939e-08
692.8, 7.4077e-08
693.0, 6.697e-08
693.2, 6.0545e-08
693.4, 5.4736e-08
693.6, 4.9485e-08
693.8, 4.4737e-08
694.0, 4.0445e-08
694.2, 3.6565e-08
694.4, 3.3057e-08
694.6, 2.9885e-08
694.8, 2.7018e-08
695.0, 2.4426e-08
695.2, 2.2082e-08
695.4, 1.9964e-08
695.6, 1.8048e-08
695.8, 1.6317e-08
696.0, 1.6972e-08
696.2, 1.8773e-08
696.4, 2.0766e-08
696.6, 2.2971e-08
696.8, 2.5409e-08
697.0, 2.8106e-08
697.2, 3.109e-08
697.4, 3.439e-08
697.6, 3.8041e-08
697.8, 4.2079e-08
698.0, 4.6546e-08
698.2, 5.1487e-08
698.4, 5.6952e-08
698.6, 6.2998e-08
698.8, 6.9685e-08
699.0, 7.7083e-08
699.2, 8.5265e-08
699.4, 9.4316e-08
699.6, 1.0e-07
699.8, 1.0e-07
700.0, 1.0e-07
700.2, 1.0e-07
700.4, 1.0e-07
700.6, 1.0e-07
700.8, 1.0e-07
701.0, 1.0e-07
701.2, 1.0e-07
701.4, 1.0e-07
701.6, 1.0e-07
701.8, 1.0e-07
702.0, 1.0e-07
702.2, 1.0e-07
702.4, 1.0e-07
702.6, 1.0e-07
702.8, 1.0e-07
703.0, 1.0e-07
703.2, 1.0e-07
703.4, 1.0e-07
703.6, 1.0e-07
703.8, 1.0e-07
704.0, 1.0e-07
704.2, 1.0e-07
704.4, 1.0e-07
704.6, 1.0e-07
704.8, 1.0e-07
705.0, 1.0e-07
705.2, 1.0e-07
705.4, 1.0e-07
705.6, 1.0e-07
705.8, 1.0e-07
706.0, 1.0e-07
706.2, 1.0e-07
706.4, 1.0e-07
706.6, 1.0e-07
706.8, 1.0e-07
707.0, 1.0e-07
707.2, 1.0e-07
707.4, 1.0e-07
707.6, 1.0e-07
707.8, 1.0e-07
708.0, 1.0e-07
708.2, 1.0e-07
708.4, 1.0e-07
708.6, 1.0e-07
708.8, 1.0e-07
709.0, 1.0e-07
709.2, 1.0e-07
709.4, 1.0e-07
709.6, 1.0e-07
709.8, 1.0e-07
710.0, 1.0e-07
710.2, 1.0e-07
710.4, 1.0e-07
710.6, 1.0e-07
710.8, 1.0e-07
711.0, 1.0e-07
711.2, 1.0e-07
711.4, 1.0e-07
711.6, 1.0e-07
711.8, 1.0e-07
712.0, 1.0e-07
712.2, 1.0e-07
712.4, 1.0e-07
712.6, 1.0e-07
712.8, 1.0e-07
713.0, 1.0e-07
713.2, 1.0e-07
713.4, 1.0e-07
713.6, 1.0e-07
713.8, 1.0e-07
714.0, 1.0e-07
714.2, 1.0e-07
714.4, 1.0e-07
714.6, 1.0e-07
714.8, 1.0e-07
715.0, 1.0e-07
715.2, 1.0e-07
715.4, 1.0e-07
715.6, 1.0e-07
715.8, 1.0e-07
716.0, 1.0e-07
716.2, 1.0e-07
716.4, 1.0e-07
716.6, 1.0e-07
716.8, 1.0e-07
717.0, 1.0e-07
717.2, 1.0e-07
717.4, 1.0e-07
717.6, 1.0e-07
717.8, 1.0e-07
718.0, 1.0e-07
718.2, 1.0e-07
718.4, 1.0e-07
718.6, 1.0e-07
718.8, 1.0e-07
719.0, 1.0e-07
719.2, 1.0e-07
719.4, 1.0e-07
719.6, 1.0e-07
719.8, 1.0e-07
720.0, 1.0e-07
720.2, 1.0e-07
720.4, 1.0e-07
720.6, 1.0e-07
720.8, 1.0e-07
721.0, 1.0e-07
721.2, 1.0e-07
721.4, 1.0e-07
721.6, 1.0e-07
721.8, 1.0e-07
722.0, 1.0e-07
722.2, 1.0e-07
722.4, 1.0e-07
722.6, 1.0e-07
722.8, 1.0e-07
723.0, 1.0e-07
723.2, 1.0e-07
723.4, 1.0e-07
723.6, 1.0e-07
723.8, 1.0e-07
724.0, 1.0e-07
724.2, 1.0e-07
724.4, 1.0e-07
724.6, 1.0e-07
724.8, 1.0e-07
725.0, 1.0e-07
725.2, 1.0e-07
725.4, 1.0e-07
725.6, 1.0e-07
725.8, 1.0e-07
726.0, 1.0e-07
726.2, 1.0e-07
726.4, 1.0e-07
726.6, 1.0e-07
726.8, 1.0e-07
727.0, 1.0e-07
727.2, 1.0e-07
727.4, 1.0e-07
727.6, 1.0e-07
727.8, 1.0e-07
728.0, 1.0e-07
728.2, 1.0e-07
728.4, 1.0e-07
728.6, 1.0e-07
728.8, 1.0e-07
729.0, 1.0e-07
729.2, 1.0e-07
729.4, 1.0e-07
729.6, 1.0e-07
729.8, 1.0e-07
730.0, 1.0e-07
730.2, 1.0e-07
730.4, 1.0e-07
730.6, 1.0e-07
730.8, 1.0e-07
731.0, 1.0e-07
731.2, 1.0e-07
731.4, 1.0e-07
731.6, 1.0e-07
731.8, 1.0e-07
732.0, 1.0e-07
732.2, 1.0e-07
732.4, 1.0e-07
732.6, 1.0e-07
732.8, 1.0e-07
733.0, 1.0e-07
733.2, 1.0e-07
733.4, 1.0e-07
733.6, 1.0e-07
733.8, 1.0e-07
734.0, 1.0e-07
734.2, 1.0e-07
734.4, 1.0e-07
734.6, 1.0e-07
734.8, 1.0e-07
735.0, 1.0e-07
735.2, 1.0e-07
735.4, 1.0e-07
735.6, 1.0e-07
735.8, 1.0e-07
736.0, 1.0e-07
736.2, 1.0e-07
736.4, 1.0e-07
736.6, 1.0e-07
736.8, 1.0e-07
737.0, 1.0e-07
737.2, 1.0e-07
737.4, 1.0e-07
737.6, 1.0e-07
737.8, 1.0e-07
738.0, 1.0e-07
738.2, 1.0e-07
738.4, 1.0e-07
738.6, 1.0e-07
738.8, 1.0e-07
739.0, 1.0e-07
739.2, 1.0e-07
739.4, 1.0e-07
739.6, 1.0e-07
739.8, 1.0e-07
740.0, 1.0e-07
740.2, 1.0e-07
740.4, 1.0e-07
740.6, 1.0e-07
740.8, 1.0e-07
741.0, 1.0e-07
741.2, 1.0e-07
741.4, 1.0e-07
741.6, 1.0e-07
741.8, 1.0e-07
742.0, 1.0e-07
742.2, 1.0e-07
742.4, 1.0e-07
742.6, 1.0e-07
742.8, 1.0e-07
743.0, 1.0e-07
743.2, 1.0e-07
743.4, 1.0e-07
743.6, 1.0e-07
743.8, 1.0e-07
744.0, 1.0e-07
744.2, 1.0e-07
744.4, 1.0e-07
744.6, 1.0e-07
744.8, 1.0e-07
745.0, 1.0e-07
745.2, 1.0e-07
745.4, 1.0e-07
745.6, 1.0e-07
745.8, 1.0e-07
746.0, 1.0e-07
746.2, 1.0e-07
746.4, 1.0e-07
746.6, 1.0e-07
746.8, 1.0e-07
747.0, 1.0e-07
747.2, 1.0e-07
747.4, 1.0e-07
747.6, 1.0e-07
747.8, 1.0e-07
748.0, 1.0e-07
748.2, 1.0e-07
748.4, 1.0e-07
748.6, 1.0e-07
748.8, 1.0e-07
749.0, 1.0e-07
749.2, 1.0e-07
749.4, 1.0e-07
749.6, 1.0e-07
749.8, 1.0e-07
750.0, 1.0e-07
750.2, 1.0e-07
750.4, 1.0e-07
750.6, 1.0e-07
750.8, 1.0e-07
751.0, 1.0e-07
751.2, 1.0e-07
751.4, 1.0e-07
751.6, 1.0e-07
751.8, 1.0e-07
752.0, 1.0e-07
752.2, 1.0e-07
752.4, 1.0e-07
752.6, 1.0e-07
752.8, 1.0e-07
753.0, 1.0e-07
753.2, 1.0e-07
753.4, 1.0e-07
753.6, 1.0e-07
753.8, 1.0e-07
754.0, 1.0e-07
754.2, 1.0e-07
754.4, 1.0e-07
754.6, 1.0e-07
754.8, 1.0e-07
755.0, 1.0e-07
755.2, 1.0e-07
755.4, 1.0e-07
755.6, 1.0e-07
755.8, 1.0e-07
756.0, 1.0e-07
756.2, 1.0e-07
756.4, 1.0e-07
756.6, 1.0e-07
756.8, 1.0e-07
757.0, 1.0e-07
757.2, 1.0e-07
757.4, 9.324e-08
757.6, 8.4368e-08
757.8, 7.634e-08
758.0, 6.9076e-08
758.2, 6.2503e-08
758.4, 5.6556e-08
758.6, 5.1174e-08
758.8, 4.6305e-08
759.0, 4.1899e-08
759.2, 3.7912e-08
759.4, 3.4305e-08
759.6, 3.104e-08
759.8, 2.8087e-08
760.0, 2.5414e-08
760.2, 2.2996e-08
760.4, 2.0808e-08
760.6, 1.8828e-08
760.8, 1.7036e-08
761.0, 1.702e-08
761.2, 1.8811e-08
761.4, 2.0791e-08
761.6, 2.298e-08
761.8, 2.5398e-08
762.0, 2.8071e-08
762.2, 3.1026e-08
762.4, 3.4291e-08
762.6, 3.7901e-08
762.8, 4.189e-08
763.0, 4.6299e-08
763.2, 5.1172e-08
763.4, 5.6558e-08
763.6, 6.251e-08
763.8, 6.909e-08
764.0, 7.6361e-08
764.2, 8.4398e-08
764.4, 9.3281e-08
764.6, 1.0e-07
764.8, 1.0e-07
765.0, 1.0e-07
765.2, 1.0e-07
765.4, 1.0e-07
765.6, 1.0e-07
765.8, 1.0e-07
766.0, 1.0e-07
766.2, 1.0e-07
766.4, 1.0e-07
766.6, 1.0e-07
766.8, 1.0e-07
767.0, 1.0e-07
767.2, 1.0e-07
767.4, 1.0e-07
767.6, 1.0e-07
767.8, 1.0e-07
768.0, 1.0e-07
768.2, 1.0e-07
768.4, 1.0e-07
768.6, 1.0e-07
768.8, 1.0e-07
769.0, 1.0e-07
769.2, 1.0e-07
769.4, 1.0e-07
769.6, 1.0e-07
769.8, 1.0e-07
770.0, 1.0e-07
770.2, 1.0e-07
770.4, 1.0e-07
770.6, 1.0e-07
770.8, 1.0e-07
771.0, 1.0e-07
771.2, 1.0e-07
771.4, 1.0e-07
771.6, 1.0e-07
771.8, 1.0e-07
772.0, 1.0e-07
772.2, 1.0e-07
772.4, 1.0e-07
772.6, 1.0e-07
772.8, 1.0e-07
773.0, 1.0e-07
773.2, 1.0e-07
773.4, 1.0e-07
773.6, 1.0e-07
773.8, 1.0e-07
774.0, 1.0e-07
774.2, 1.0e-07
774.4, 1.0e-07
774.6, 1.0e-07
774.8, 1.0e-07
775.0, 1.0e-07
775.2, 1.0e-07
775.4, 1.0e-07
775.6, 9.2569e-08
775.8, 8.3949e-08
776.0, 7.6131e-08
776.2, 6.9042e-08
776.4, 6.2612e-08
776.6, 5.6782e-08
776.8, 5.1494e-08
777.0, 4.6699e-08
777.2, 4.235e-08
777.4, 3.8407e-08
777.6, 3.483e-08
777.8, 3.1587e-08
778.0, 2.8645e-08
778.2, 2.5978e-08
778.4, 2.3559e-08
778.6, 2.1365e-08
778.8, 1.9375e-08
779.0, 1.7571e-08
779.2, 1.8042e-08
779.4, 1.9896e-08
779.6, 2.1941e-08
779.8, 2.4196e-08
780.0, 2.6683e-08
780.2, 2.9425e-08
780.4, 3.2449e-08
780.6, 3.5784e-08
780.8, 3.9461e-08
781.0, 4.3517e-08
781.2, 4.7989e-08
781.4, 5.2921e-08
781.6, 5.836e-08
781.8, 6.4358e-08
782.0, 7.0972e-08
782.2, 7.8266e-08
782.4, 8.631e-08
782.6, 9.518e-08
782.8, 1.0e-07
783.0, 1.0e-07
783.2, 1.0e-07
783.4, 1.0e-07
783.6, 1.0e-07
783.8, 1.0e-07
784.0, 1.0e-07
784.2, 1.0e-07
784.4, 1.0e-07
784.6, 1.0e-07
784.8, 1.0e-07
785.0, 1.0e-07
785.2, 1.0e-07
785.4, 1.0e-07
785.6, 1.0e-07
785.8, 1.0e-07
786.0, 1.0e-07
786.2, 1.0e-07
786.4, 1.0e-07
786.6, 1.0e-07
786.8, 1.0e-07
787.0, 1.0e-07
787.2, 1.0e-07
787.4, 1.0e-07
787.6, 1.0e-07
787.8, 1.0e-07
788.0, 1.0e-07
788.2, 1.0e-07
788.4, 1.0e-07
788.6, 1.0e-07
788.8, 1.0e-07
789.0, 1.0e-07
789.2, 1.0e-07
789.4, 1.0e-07
789.6, 1.0e-07
789.8, 1.0e-07
790.0, 1.0e-07
790.2, 1.0e-07
790.4, 1.0e-07
790.6, 1.0e-07
790.8, 1.0e-07
791.0, 1.0e-07
791.2, 1.0e-07
791.4, 1.0e-07
791.6, 1.0e-07
791.8, 1.0e-07
792.0, 1.0e-07
792.2, 1.0e-07
792.4, 1.0e-07
792.6, 1.0e-07
792.8, 1.0e-07
793.0, 1.0e-07
793.2, 1.0e-07
793.4, 1.0e-07
793.6, 1.0e-07
793.8, 1.0e-07
794.0, 1.0e-07
794.2, 1.0e-07
794.4, 1.0e-07
794.6, 1.0e-07
794.8, 1.0e-07
795.0, 1.0e-07
795.2, 8.2673e-08
795.4, 6.8348e-08
795.6, 5.6506e-08
795.8, 4.6715e-08
796.0, 3.8621e-08
796.2, 3.1929e-08
796.4, 2.6396e-08
796.6, 2.1823e-08
796.8, 1.8042e-08
797.0, 1.4915e-08
797.2, 1.2636e-08
797.4, 1.4174e-08
797.6, 1.5899e-08
797.8, 1.7834e-08
798.0, 2.0005e-08
798.2, 2.244e-08
798.4, 2.5171e-08
798.6, 2.8235e-08
798.8, 3.1671e-08
799.0, 3.5526e-08
799.2, 3.9851e-08
799.4, 4.4701e-08
799.6, 5.0142e-08
799.8, 5.6245e-08
800.0, 6.3091e-08
800.2, 7.077e-08
800.4, 7.9384e-08
800.6, 8.9047e-08
800.8, 9.9885e-08
801.0, 1.0e-07
801.2, 1.0e-07
801.4, 1.0e-07
801.6, 1.0e-07
801.8, 1.0e-07
802.0, 1.0e-07
802.2, 1.0e-07
802.4, 1.0e-07
802.6, 1.0e-07
802.8, 1.0e-07
803.0, 1.0e-07
803.2, 1.0e-07
803.4, 1.0e-07
803.6, 1.0e-07
803.8, 1.0e-07
804.0, 1.0e-07
804.2, 1.0e-07
804.4, 1.0e-07
804.6, 1.0e-07
804.8, 1.0e-07
805.0, 1.0e-07
805.2, 1.0e-07
805.4, 1.0e-07
805.6, 1.0e-07
805.8, 1.0e-07
806.0, 1.0e-07
806.2, 1.0e-07
806.4, 1.0e-07
806.6, 1.0e-07
806.8, 1.0e-07
807.0, 1.0e-07
807.2, 1.0e-07
807.4, 1.0e-07
807.6, 1.0e-07
807.8, 1.0e-07
808.0, 1.0e-07
808.2, 1.0e-07
808.4, 1.0e-07
808.6, 1.0e-07
808.8, 1.0e-07
809.0, 1.0e-07
809.2, 1.0e-07
809.4, 1.0e-07
809.6, 1.0e-07
809.8, 1.0e-07
810.0, 1.0e-07
810.2, 1.0e-07
810.4, 1.0e-07
810.6, 1.0e-07
810.8, 1.0e-07
811.0, 1.0e-07
811.2, 1.0e-07
811.4, 1.0e-07
811.6, 1.0e-07
811.8, 1.0e-07
812.0, 1.0e-07
812.2, 1.0e-07
812.4, 1.0e-07
812.6, 1.0e-07
812.8, 1.0e-07
813.0, 1.0e-07
813.2, 1.0e-07
813.4, 1.0e-07
813.6, 1.0e-07
813.8, 1.0e-07
814.0, 1.0e-07
814.2, 1.0e-07
814.4, 1.0e-07
814.6, 1.0e-07
814.8, 1.0e-07
815.0, 1.0e-07
815.2, 1.0e-07
815.4, 1.0e-07
815.6, 1.0e-07
815.8, 1.0e-07
816.0, 1.0e-07
816.2, 1.0e-07
816.4, 1.0e-07
816.6, 1.0e-07
816.8, 1.0e-07
817.0, 1.0e-07
817.2, 1.0e-07
817.4, 1.0e-07
817.6, 1.0e-07
817.8, 1.0e-07
818.0, 1.0e-07
818.2, 1.0e-07
818.4, 1.0e-07
818.6, 1.0e-07
818.8, 1.0e-07
819.0, 1.0e-07
819.2, 1.0e-07
819.4, 1.0e-07
819.6, 1.0e-07
819.8, 1.0e-07
820.0, 1.0e-07
820.2, 1.0e-07
820.4, 1.0e-07
820.6, 1.0e-07
820.8, 1.0e-07
821.0, 1.0e-07
821.2, 1.0e-07
821.4, 1.0e-07
821.6, 1.0e-07
821.8, 1.0e-07
822.0, 1.0e-07
822.2, 1.0e-07
822.4, 9.739e-08
822.6, 9.1233e-08
822.8, 8.5466e-08
823.0, 8.0063e-08
823.2, 7.5002e-08
823.4, 7.0261e-08
823.6, 6.5819e-08
823.8, 6.1659e-08
824.0, 5.7761e-08
824.2, 5.411e-08
824.4, 5.0689e-08
824.6, 4.7485e-08
824.8, 4.4483e-08
825.0, 4.1671e-08
825.2, 3.9037e-08
825.4, 3.6569e-08
825.6, 3.4257e-08
825.8, 3.2092e-08
826.0, 3.1972e-08
826.2, 3.7033e-08
826.4, 4.2895e-08
826.6, 4.9686e-08
826.8, 5.7551e-08
827.0, 6.6662e-08
827.2, 7.7214e-08
827.4, 8.9438e-08
827.6, 1.036e-07
827.8, 1.2e-07
828.0, 1.3899e-07
828.2, 1.6099e-07
828.4, 1.8648e-07
828.6, 2.16e-07
828.8, 2.5019e-07
829.0, 2.898e-07
829.2, 3.3567e-07
829.4, 3.8881e-07
829.6, 4.4002e-07
829.8, 4.4957e-07
830.0, 4.5932e-07
830.2, 4.6929e-07
830.4, 4.7947e-07
830.6, 4.8987e-07
830.8, 5.005e-07
831.0, 5.1136e-07
831.2, 5.2245e-07
831.4, 5.3379e-07
831.6, 5.4537e-07
831.8, 5.572e-07
832.0, 5.6929e-07
832.2, 5.8164e-07
832.4, 5.9425e-07
832.6, 6.0715e-07
832.8, 6.2032e-07
833.0, 6.3378e-07
833.2, 6.4915e-07
833.4, 6.8094e-07
833.6, 7.1429e-07
833.8, 7.4928e-07
834.0, 7.8597e-07
834.2, 8.2447e-07
834.4, 8.6485e-07
834.6, 9.0721e-07
834.8, 9.5164e-07
835.0, 9.9825e-07
835.2, 1.0471e-06
835.4, 1.0984e-06
835.6, 1.1522e-06
835.8, 1.2087e-06
836.0, 1.2679e-06
836.2, 1.3299e-06
836.4, 1.3951e-06
836.6, 1.4634e-06
836.8, 1.5325e-06
837.0, 1.3613e-06
837.2, 1.2092e-06
837.4, 1.0741e-06
837.6, 9.5414e-07
837.8, 8.4754e-07
838.0, 7.5285e-07
838.2, 6.6875e-07
838.4, 5.9403e-07
838.6, 5.2767e-07
838.8, 4.6872e-07
839.0, 4.1635e-07
839.2, 3.6984e-07
839.4, 3.2852e-07
839.6, 2.9182e-07
839.8, 2.5922e-07
840.0, 2.3026e-07
840.2, 2.0453e-07
840.4, 1.8168e-07
840.6, 1.7487e-07
840.8, 1.6926e-07
841.0, 1.6383e-07
841.2, 1.5857e-07
841.4, 1.5348e-07
841.6, 1.4855e-07
841.8, 1.4378e-07
842.0, 1.3917e-07
842.2, 1.347e-07
842.4, 1.3038e-07
842.6, 1.2619e-07
842.8, 1.2214e-07
843.0, 1.1822e-07
843.2, 1.1442e-07
843.4, 1.1075e-07
843.6, 1.072e-07
843.8, 1.0376e-07
844.0, 1.0043e-07
844.2, 1.0e-07
844.4, 1.0e-07
844.6, 1.0e-07
844.8, 1.0e-07
845.0, 1.0e-07
845.2, 1.0e-07
845.4, 1.0e-07
845.6, 1.0e-07
845.8, 1.0e-07
846.0, 1.0e-07
846.2, 1.0e-07
846.4, 1.0e-07
846.6, 1.0e-07
846.8, 1.0e-07
847.0, 1.0e-07
847.2, 1.0e-07
847.4, 1.0e-07
847.6, 1.0e-07
847.8, 1.0e-07
848.0, 1.0e-07
848.2, 1.0e-07
848.4, 1.0e-07
848.6, 1.0e-07
848.8, 1.0e-07
849.0, 1.0e-07
849.2, 1.0e-07
849.4, 1.0e-07
849.6, 1.0e-07
849.8, 1.0e-07
850.0, 1.0e-07
850.2, 1.0e-07
850.4, 1.0e-07
850.6, 1.0e-07
850.8, 1.0e-07
851.0, 1.0e-07
851.2, 1.0e-07
851.4, 1.017e-07
851.6, 1.0396e-07
851.8, 1.0627e-07
852.0, 1.0864e-07
852.2, 1.1105e-07
852.4, 1.1352e-07
852.6, 1.1605e-07
852.8, 1.1863e-07
853.0, 1.2127e-07
853.2, 1.2396e-07
853.4, 1.2672e-07
853.6, 1.2954e-07
853.8, 1.3242e-07
854.0, 1.3537e-07
854.2, 1.3838e-07
854.4, 1.4146e-07
854.6, 1.446e-07
854.8, 1.4782e-07
855.0, 1.4888e-07
855.2, 1.4912e-07
855.4, 1.4936e-07
855.6, 1.496e-07
855.8, 1.4984e-07
856.0, 1.5008e-07
856.2, 1.5033e-07
856.4, 1.5057e-07
856.6, 1.5081e-07
856.8, 1.5106e-07
857.0, 1.513e-07
857.2, 1.5155e-07
857.4, 1.5179e-07
857.6, 1.5204e-07
857.8, 1.5229e-07
858.0, 1.5253e-07
858.2, 1.5278e-07
858.4, 1.5303e-07
858.6, 1.4538e-07
858.8, 1.3509e-07
859.0, 1.2553e-07
859.2, 1.1664e-07
859.4, 1.0839e-07
859.6, 1.0072e-07
859.8, 9.3587e-08
860.0, 8.6963e-08
860.2, 8.0808e-08
860.4, 7.5088e-08
860.6, 6.9774e-08
860.8, 6.4835e-08
861.0, 6.0247e-08
861.2, 5.5982e-08
861.4, 5.202e-08
861.6, 4.8338e-08
861.8, 4.4917e-08
862.0, 4.1738e-08
862.2, 4.1865e-08
862.4, 4.3495e-08
862.6, 4.5188e-08
862.8, 4.6947e-08
863.0, 4.8774e-08
863.2, 5.0673e-08
863.4, 5.2646e-08
863.6, 5.4695e-08
863.8, 5.6825e-08
864.0, 5.9037e-08
864.2, 6.1335e-08
864.4, 6.3723e-08
864.6, 6.6203e-08
864.8, 6.8781e-08
865.0, 7.1458e-08
865.2, 7.424e-08
865.4, 7.713e-08
865.6, 8.0133e-08
865.8, 8.506e-08
866.0, 9.1208e-08
866.2, 9.7801e-08
866.4, 1.0487e-07
866.6, 1.1245e-07
866.8, 1.2058e-07
867.0, 1.2929e-07
867.2, 1.3864e-07
867.4, 1.4866e-07
867.6, 1.594e-07
867.8, 1.7093e-07
868.0, 1.8328e-07
868.2, 1.9549e-07
868.4, 2.0852e-07
868.6, 2.2241e-07
868.8, 2.3723e-07
869.0, 2.5304e-07
869.2, 2.699e-07
869.4, 2.886e-07
869.6, 3.0973e-07
869.8, 3.3239e-07
870.0, 3.5672e-07
870.2, 3.8283e-07
870.4, 4.1085e-07
870.6, 4.4091e-07
870.8, 4.7318e-07
871.0, 5.0782e-07
871.2, 5.4498e-07
871.4, 5.8487e-07
871.6, 6.2767e-07
871.8, 6.7361e-07
872.0, 7.2291e-07
872.2, 7.7582e-07
872.4, 8.326e-07
872.6, 8.9353e-07
872.8, 9.5893e-07
873.0, 1.0336e-06
873.2, 1.1241e-06
873.4, 1.2225e-06
873.6, 1.3295e-06
873.8, 1.4458e-06
874.0, 1.5724e-06
874.2, 1.71e-06
874.4, 1.8596e-06
874.6, 2.0224e-06
874.8, 2.1994e-06
875.0, 2.3919e-06
875.2, 2.6013e-06
875.4, 2.8289e-06
875.6, 3.0765e-06
875.8, 3.3458e-06
876.0, 3.6386e-06
876.2, 3.9571e-06
876.4, 4.3034e-06
876.6, 4.5345e-06
876.8, 4.377e-06
877.0, 4.225e-06
877.2, 4.0782e-06
877.4, 3.9366e-06
877.6, 3.7998e-06
877.8, 3.6679e-06
878.0, 3.5405e-06
878.2, 3.4175e-06
878.4, 3.2988e-06
878.6, 3.1842e-06
878.8, 3.0736e-06
879.0, 2.9669e-06
879.2, 2.8638e-06
879.4, 2.7644e-06
879.6, 2.6683e-06
879.8, 2.5757e-06
880.0, 2.4862e-06
880.2, 2.3807e-06
880.4, 2.21e-06
880.6, 2.0515e-06
880.8, 1.9043e-06
881.0, 1.7677e-06
881.2, 1.641e-06
881.4, 1.5233e-06
881.6, 1.414e-06
881.8, 1.3126e-06
882.0, 1.2185e-06
882.2, 1.1311e-06
882.4, 1.0499e-06
882.6, 9.7464e-07
882.8, 9.0473e-07
883.0, 8.3984e-07
883.2, 7.7961e-07
883.4, 7.2369e-07
883.6, 6.7179e-07
883.8, 6.255e-07
884.0, 5.9208e-07
884.2, 5.6045e-07
884.4, 5.3052e-07
884.6, 5.0218e-07
884.8, 4.7535e-07
885.0, 4.4996e-07
885.2, 4.2592e-07
885.4, 4.0317e-07
885.6, 3.8163e-07
885.8, 3.6124e-07
886.0, 3.4195e-07
886.2, 3.2368e-07
886.4, 3.0639e-07
886.6, 2.9002e-07
886.8, 2.7453e-07
887.0, 2.5986e-07
887.2, 2.4598e-07
887.4, 2.3219e-07
887.6, 2.1446e-07
887.8, 1.9808e-07
888.0, 1.8295e-07
888.2, 1.6898e-07
888.4, 1.5608e-07
888.6, 1.4416e-07
888.8, 1.3315e-07
889.0, 1.2299e-07
889.2, 1.136e-07
889.4, 1.0492e-07
889.6, 9.6909e-08
889.8, 8.9509e-08
890.0, 8.2674e-08
890.2, 7.6361e-08
890.4, 7.0531e-08
890.6, 6.5145e-08
890.8, 6.017e-08
891.0, 5.6055e-08
891.2, 5.7276e-08
891.4, 5.8525e-08
891.6, 5.98e-08
891.8, 6.1103e-08
892.0, 6.2435e-08
892.2, 6.3795e-08
892.4, 6.5185e-08
892.6, 6.6606e-08
892.8, 6.8057e-08
893.0, 6.954e-08
893.2, 7.1056e-08
893.4, 7.2604e-08
893.6, 7.4186e-08
893.8, 7.5803e-08
894.0, 7.7455e-08
894.2, 7.9143e-08
894.4, 8.0867e-08
894.6, 8.2423e-08
894.8, 8.1042e-08
895.0, 7.9683e-08
895.2, 7.8348e-08
895.4, 7.7035e-08
895.6, 7.5743e-08
895.8, 7.4474e-08
896.0, 7.3225e-08
896.2, 7.1998e-08
896.4, 7.0791e-08
896.6, 6.9605e-08
896.8, 6.8438e-08
897.0, 6.7291e-08
897.2, 6.6163e-08
897.4, 6.5054e-08
897.6, 6.3964e-08
897.8, 6.2891e-08
898.0, 6.1837e-08
898.2, 6.094e-08
898.4, 6.2467e-08
898.6, 6.4033e-08
898.8, 6.5638e-08
899.0, 6.7283e-08
899.2, 6.8969e-08
899.4, 7.0698e-08
899.6, 7.2469e-08
899.8, 7.4286e-08
900.0, 7.6147e-08
900.2, 7.8056e-08
900.4, 8.0012e-08
900.6, 8.2017e-08
900.8, 8.4073e-08
901.0, 8.618e-08
901.2, 8.834e-08
901.4, 9.0554e-08
901.6, 9.2823e-08
901.8, 9.5538e-08
902.0, 1.0625e-07
902.2, 1.1815e-07
902.4, 1.314e-07
902.6, 1.4612e-07
902.8, 1.625e-07
903.0, 1.8072e-07
903.2, 2.0097e-07
903.4, 2.2349e-07
903.6, 2.4854e-07
903.8, 2.764e-07
904.0, 3.0738e-07
904.2, 3.4183e-07
904.4, 3.8015e-07
904.6, 4.2275e-07
904.8, 4.7013e-07
905.0, 5.2283e-07
905.2, 5.8143e-07
905.4, 6.4284e-07
905.6, 6.4871e-07
905.8, 6.5464e-07
906.0, 6.6062e-07
906.2, 6.6666e-07
906.4, 6.7275e-07
906.6, 6.789e-07
906.8, 6.8511e-07
907.0, 6.9137e-07
907.2, 6.9769e-07
907.4, 7.0406e-07
907.6, 7.105e-07
907.8, 7.1699e-07
908.0, 7.2355e-07
908.2, 7.3016e-07
908.4, 7.3683e-07
908.6, 7.4357e-07
908.8, 7.5036e-07
909.0, 7.5427e-07
909.2, 7.2258e-07
909.4, 6.9222e-07
909.6, 6.6313e-07
909.8, 6.3527e-07
910.0, 6.0858e-07
910.2, 5.8301e-07
910.4, 5.5851e-07
910.6, 5.3504e-07
910.8, 5.1256e-07
911.0, 4.9103e-07
911.2, 4.7039e-07
911.4, 4.5063e-07
911.6, 4.3169e-07
911.8, 4.1356e-07
912.0, 3.9618e-07
912.2, 3.7953e-07
912.4, 3.6359e-07
912.6, 3.4952e-07
912.8, 3.4606e-07
913.0, 3.4264e-07
913.2, 3.3925e-07
913.4, 3.3589e-07
913.6, 3.3257e-07
913.8, 3.2928e-07
914.0, 3.2602e-07
914.2, 3.228e-07
914.4, 3.1961e-07
914.6, 3.1645e-07
914.8, 3.1332e-07
915.0, 3.1022e-07
915.2, 3.0715e-07
915.4, 3.0411e-07
915.6, 3.011e-07
915.8, 2.9812e-07
916.0, 2.9518e-07
916.2, 2.9349e-07
916.4, 2.9946e-07
916.6, 3.0556e-07
916.8, 3.1178e-07
917.0, 3.1813e-07
917.2, 3.246e-07
917.4, 3.3121e-07
917.6, 3.3795e-07
917.8, 3.4483e-07
918.0, 3.5185e-07
918.2, 3.5901e-07
918.4, 3.6632e-07
918.6, 3.7378e-07
918.8, 3.8139e-07
919.0, 3.8915e-07
919.2, 3.9707e-07
919.4, 4.0516e-07
919.6, 4.1341e-07
919.8, 4.2307e-07
920.0, 4.3867e-07
920.2, 4.5483e-07
920.4, 4.716e-07
920.6, 4.8898e-07
920.8, 5.07e-07
921.0, 5.2569e-07
921.2, 5.4506e-07
921.4, 5.6515e-07
921.6, 5.8598e-07
921.8, 6.0758e-07
922.0, 6.2997e-07
922.2, 6.5319e-07
922.4, 6.7726e-07
922.6, 7.0222e-07
922.8, 7.281e-07
923.0, 7.5494e-07
923.2, 7.8276e-07
923.4, 8.1233e-07
923.6, 8.4536e-07
923.8, 8.7973e-07
924.0, 9.1551e-07
924.2, 9.5273e-07
924.4, 9.9148e-07
924.6, 1.0318e-06
924.8, 1.0737e-06
925.0, 1.1174e-06
925.2, 1.1629e-06
925.4, 1.2101e-06
925.6, 1.2593e-06
925.8, 1.3106e-06
926.0, 1.3638e-06
926.2, 1.4193e-06
926.4, 1.477e-06
926.6, 1.5371e-06
926.8, 1.5996e-06
927.0, 1.687e-06
927.2, 1.8339e-06
927.4, 1.9937e-06
927.6, 2.1675e-06
927.8, 2.3563e-06
928.0, 2.5616e-06
928.2, 2.7848e-06
928.4, 3.0275e-06
928.6, 3.2913e-06
928.8, 3.578e-06
929.0, 3.8898e-06
929.2, 4.2287e-06
929.4, 4.5972e-06
929.6, 4.9978e-06
929.8, 5.4332e-06
930.0, 5.9066e-06
930.2, 6.4213e-06
930.4, 6.9808e-06
930.6, 7.6701e-06
930.8, 8.575e-06
931.0, 9.5866e-06
931.2, 1.0718e-05
931.4, 1.1982e-05
931.6, 1.3395e-05
931.8, 1.4976e-05
932.0, 1.6742e-05
932.2, 1.6881e-05
932.4, 1.948e-05
932.6, 2.2878e-05
932.8, 2.4732e-05
933.0, 2.7012e-05
933.2, 3.1086e-05
933.4, 3.3154e-05
933.6, 3.7506e-05
933.8, 3.9343e-05
934.0, 4.0938e-05
934.2, 4.32e-05
934.4, 4.404e-05
934.6, 4.4959e-05
934.8, 4.4241e-05
935.0, 4.4753e-05
935.2, 4.7121e-05
935.4, 4.5146e-05
935.6, 4.3688e-05
935.8, 4.3563e-05
936.0, 4.3516e-05
936.2, 4.3771e-05
936.4, 4.3832e-05
936.6, 4.2831e-05
936.8, 4.3959e-05
937.0, 4.4125e-05
937.2, 4.4212e-05
937.4, 4.4495e-05
937.6, 4.6463e-05
937.8, 4.6499e-05
938.0, 4.7745e-05
938.2, 5.0205e-05
938.4, 5.1919e-05
938.6, 5.3275e-05
938.8, 5.7577e-05
939.0, 5.9178e-05
939.2, 6.11e-05
939.4, 6.7829e-05
939.6, 6.9454e-05
939.8, 7.6311e-05
940.0, 8.2161e-05
940.2, 8.8059e-05
940.4, 9.5715e-05
940.6, 1.0481e-04
940.8, 1.1456e-04
941.0, 1.2554e-04
941.2, 1.3867e-04
941.4, 1.4725e-04
941.6, 1.638e-04
941.8, 1.8198e-04
942.0, 2.0094e-04
942.2, 2.2124e-04
942.4, 2.4007e-04
942.6, 2.6532e-04
942.8, 2.9124e-04
943.0, 3.1998e-04
943.2, 3.5096e-04
943.4, 3.8048e-04
943.6, 4.1684e-04
943.8, 4.5005e-04
944.0, 4.8183e-04
944.2, 5.2483e-04
944.4, 5.6617e-04
944.6, 6.0572e-04
944.8, 6.478e-04
945.0, 6.9844e-04
945.2, 7.454e-04
945.4, 7.9797e-04
945.6, 8.6148e-04
945.8, 9.2251e-04
946.0, 0.001
946.2, 0.00107
946.4, 0.00117
946.6, 0.00127
946.8, 0.00139
947.0, 0.0015
947.2, 0.00164
947.4, 0.00178
947.6, 0.00194
947.8, 0.00212
948.0, 0.00229
948.2, 0.00248
948.4, 0.00264
948.6, 0.00279
948.8, 0.00291
949.0, 0.00302
949.2, 0.0031
949.4, 0.00313
949.6, 0.00315
949.8, 0.00317
950.0, 0.00316
950.2, 0.00315
950.4, 0.00314
950.6, 0.00314
950.8, 0.00315
951.0, 0.00319
951.2, 0.00325
951.4, 0.00333
951.6, 0.00344
951.8, 0.0036
952.0, 0.00375
952.2, 0.00396
952.4, 0.00417
952.6, 0.00438
952.8, 0.00455
953.0, 0.0046
953.2, 0.00455
953.4, 0.00435
953.6, 0.00401
953.8, 0.00355
954.0, 0.00305
954.2, 0.00257
954.4, 0.00213
954.6, 0.00176
954.8, 0.00145
955.0, 0.0012
955.2, 0.001
955.4, 8.3466e-04
955.6, 7.0186e-04
955.8, 5.9561e-04
956.0, 5.1067e-04
956.2, 4.4675e-04
956.4, 3.8678e-04
956.6, 3.3821e-04
956.8, 3.0126e-04
957.0, 2.6277e-04
957.2, 2.3874e-04
957.4, 2.1558e-04
957.6, 1.9539e-04
957.8, 1.7719e-04
958.0, 1.6338e-04
958.2, 1.5215e-04
958.4, 1.4013e-04
958.6, 1.2855e-04
958.8, 1.1978e-04
959.0, 1.1437e-04
959.2, 1.1001e-04
959.4, 1.0327e-04
959.6, 9.9276e-05
959.8, 9.2978e-05
960.0, 9.0363e-05
960.2, 8.7284e-05
960.4, 8.3853e-05
960.6, 8.274e-05
960.8, 7.8746e-05
961.0, 7.6351e-05
961.2, 7.55e-05
961.4, 7.5062e-05
961.6, 7.372e-05
961.8, 7.2732e-05
962.0, 7.262e-05
962.2, 7.1322e-05
962.4, 7.1706e-05
962.6, 7.2667e-05
962.8, 7.1847e-05
963.0, 7.2982e-05
963.2, 7.3798e-05
963.4, 7.3612e-05
963.6, 7.5271e-05
963.8, 7.6611e-05
964.0, 7.644e-05
964.2, 7.7795e-05
964.4, 7.8115e-05
964.6, 7.9485e-05
964.8, 8.0541e-05
965.0, 8.1333e-05
965.2, 8.3176e-05
965.4, 8.5456e-05
965.6, 8.6797e-05
965.8, 8.7217e-05
966.0, 8.7403e-05
966.2, 8.7553e-05
966.4, 8.9709e-05
966.6, 9.0008e-05
966.8, 9.1804e-05
967.0, 9.1543e-05
967.2, 9.286e-05
967.4, 9.18e-05
967.6, 9.2768e-05
967.8, 9.0939e-05
968.0, 8.9829e-05
968.2, 9.0203e-05
968.4, 8.8062e-05
968.6, 8.8189e-05
968.8, 8.6849e-05
969.0, 8.5299e-05
969.2, 8.2223e-05
969.4, 8.4712e-05
969.6, 8.2309e-05
969.8, 8.1315e-05
970.0, 7.9782e-05
970.2, 7.8748e-05
970.4, 7.8277e-05
970.6, 7.7962e-05
970.8, 7.8698e-05
971.0, 7.7661e-05
971.2, 7.8819e-05
971.4, 7.829e-05
971.6, 7.7586e-05
971.8, 7.9088e-05
972.0, 7.9241e-05
972.2, 8.1598e-05
972.4, 8.267e-05
972.6, 8.3498e-05
972.8, 8.4858e-05
973.0, 8.6375e-05
973.2, 8.8282e-05
973.4, 9.0349e-05
973.6, 9.3795e-05
973.8, 9.7902e-05
974.0, 1.0151e-04
974.2, 1.0493e-04
974.4, 1.0971e-04
974.6, 1.1545e-04
974.8, 1.2171e-04
975.0, 1.2846e-04
975.2, 1.3612e-04
975.4, 1.4467e-04
975.6, 1.5514e-04
975.8, 1.6772e-04
976.0, 1.8085e-04
976.2, 1.945e-04
976.4, 2.1153e-04
976.6, 2.3322e-04
976.8, 2.5657e-04
977.0, 2.814e-04
977.2, 3.0942e-04
977.4, 3.4176e-04
977.6, 3.782e-04
977.8, 4.2014e-04
978.0, 4.6591e-04
978.2, 5.1449e-04
978.4, 5.666e-04
978.6, 6.1909e-04
978.8, 6.7241e-04
979.0, 7.1495e-04
979.2, 7.5647e-04
979.4, 7.8268e-04
979.6, 8.0565e-04
979.8, 8.0456e-04
980.0, 8.0083e-04
980.2, 7.7512e-04
980.4, 7.4977e-04
980.6, 7.1915e-04
980.8, 6.8942e-04
981.0, 6.4979e-04
981.2, 6.1245e-04
981.4, 5.8182e-04
981.6, 5.5275e-04
981.8, 5.2701e-04
982.0, 5.0254e-04
982.2, 4.8055e-04
982.4, 4.5963e-04
982.6, 4.4319e-04
982.8, 4.2781e-04
983.0, 4.1917e-04
983.2, 4.1182e-04
983.4, 4.0405e-04
983.6, 3.9629e-04
983.8, 3.9468e-04
984.0, 3.9488e-04
984.2, 3.9627e-04
984.4, 3.9811e-04
984.6, 4.0236e-04
984.8, 4.0769e-04
985.0, 4.1512e-04
985.2, 4.2373e-04
985.4, 4.3629e-04
985.6, 4.5157e-04
985.8, 4.684e-04
986.0, 4.866e-04
986.2, 5.0654e-04
986.4, 5.2819e-04
986.6, 5.5159e-04
986.8, 5.7685e-04
987.0, 6.0464e-04
987.2, 6.3532e-04
987.4, 6.67e-04
987.6, 6.9957e-04
987.8, 7.2997e-04
988.0, 7.5622e-04
988.2, 7.8054e-04
988.4, 8.0084e-04
988.6, 8.1727e-04
988.8, 8.2557e-04
989.0, 8.2931e-04
989.2, 8.2277e-04
989.4, 8.1335e-04
989.6, 7.9642e-04
989.8, 7.7708e-04
990.0, 7.4973e-04
990.2, 7.2173e-04
990.4, 6.8877e-04
990.6, 6.571e-04
990.8, 6.2596e-04
991.0, 5.9622e-04
991.2, 5.6747e-04
991.4, 5.401e-04
991.6, 5.1387e-04
991.8, 4.8909e-04
992.0, 4.6786e-04
992.2, 4.4758e-04
992.4, 4.2895e-04
992.6, 4.1111e-04
992.8, 3.966e-04
993.0, 3.826e-04
993.2, 3.7452e-04
993.4, 3.668e-04
993.6, 3.5921e-04
993.8, 3.5176e-04
994.0, 3.4581e-04
994.2, 3.401e-04
994.4, 3.3664e-04
994.6, 3.3356e-04
994.8, 3.3453e-04
995.0, 3.3634e-04
995.2, 3.346e-04
995.4, 3.3197e-04
995.6, 3.3425e-04
995.8, 3.3807e-04
996.0, 3.4215e-04
996.2, 3.4634e-04
996.4, 3.5231e-04
996.6, 3.5913e-04
996.8, 3.6824e-04
997.0, 3.7871e-04
997.2, 3.902e-04
997.4, 4.0247e-04
997.6, 4.147e-04
997.8, 4.27e-04
998.0, 4.4069e-04
998.2, 4.5561e-04
998.4, 4.7117e-04
998.6, 4.8738e-04
998.8, 5.0414e-04
999.0, 5.2148e-04
999.2, 5.3923e-04
999.4, 5.5738e-04
999.6, 5.7438e-04
999.8, 5.8961e-04
1000.0, 5.8818e-04
1000.2, 5.7879e-04
1000.4, 5.8735e-04
1000.6, 6.1181e-04
1000.8, 6.1461e-04
1001.0, 6.1111e-04
1001.2, 6.2574e-04
1001.4, 6.314e-04
1001.6, 6.2911e-04
1001.8, 6.2609e-04
1002.0, 6.2769e-04
1002.2, 6.2484e-04
1002.4, 6.142e-04
1002.6, 6.2417e-04
1002.8, 6.1265e-04
1003.0, 6.124e-04
1003.2, 6.0094e-04
1003.4, 5.966e-04
1003.6, 5.9624e-04
1003.8, 5.8742e-04
1004.0, 5.7253e-04
1004.2, 5.7311e-04
1004.4, 5.7739e-04
1004.6, 5.8191e-04
1004.8, 5.714e-04
1005.0, 5.6443e-04
1005.2, 5.7235e-04
1005.4, 5.717e-04
1005.6, 5.7793e-04
1005.8, 5.9624e-04
1006.0, 5.9842e-04
1006.2, 5.8771e-04
1006.4, 6.0571e-04
1006.6, 6.2451e-04
1006.8, 6.3952e-04
1007.0, 6.5245e-04
1007.2, 6.7041e-04
1007.4, 6.967e-04
1007.6, 7.2204e-04
1007.8, 7.3966e-04
1008.0, 7.8781e-04
1008.2, 8.025e-04
1008.4, 8.4513e-04
1008.6, 8.7403e-04
1008.8, 9.4437e-04
1009.0, 9.8151e-04
1009.2, 0.00103
1009.4, 0.00108
1009.6, 0.00116
1009.8, 0.00123
1010.0, 0.00132
1010.2, 0.00139
1010.4, 0.00149
1010.6, 0.00157
1010.8, 0.00166
1011.0, 0.00176
1011.2, 0.00186
1011.4, 0.00192
1011.6, 0.00202
1011.8, 0.0021
1012.0, 0.00214
1012.2, 0.0022
1012.4, 0.00222
1012.6, 0.00223
1012.8, 0.00222
1013.0, 0.0022
1013.2, 0.00217
1013.4, 0.00214
1013.6, 0.00206
1013.8, 0.00201
1014.0, 0.00193
1014.2, 0.00187
1014.4, 0.00179
1014.6, 0.00173
1014.8, 0.00167
1015.0, 0.0016
1015.2, 0.00155
1015.4, 0.00151
1015.6, 0.00145
1015.8, 0.00141
1016.0, 0.00138
1016.2, 0.00134
1016.4, 0.00131
1016.6, 0.00129
1016.8, 0.00126
1017.0, 0.00122
1017.2, 0.00122
1017.4, 0.0012
1017.6, 0.00119
1017.8, 0.0012
1018.0, 0.0012
1018.2, 0.0012
1018.4, 0.00119
1018.6, 0.0012
1018.8, 0.0012
1019.0, 0.00121
1019.2, 0.00125
1019.4, 0.00126
1019.6, 0.00127
1019.8, 0.00129
1020.0, 0.00133
1020.2, 0.00135
1020.4, 0.00139
1020.6, 0.00142
1020.8, 0.00146
1021.0, 0.00149
1021.2, 0.00154
1021.4, 0.00158
1021.6, 0.00162
1021.8, 0.00168
1022.0, 0.0017
1022.2, 0.00177
1022.4, 0.00181
1022.6, 0.00184
1022.8, 0.00188
1023.0, 0.00194
1023.2, 0.00199
1023.4, 0.00203
1023.6, 0.00203
1023.8, 0.00209
1024.0, 0.00211
1024.2, 0.00214
1024.4, 0.00219
1024.6, 0.00219
1024.8, 0.0022
1025.0, 0.00222
1025.2, 0.00224
1025.4, 0.00222
1025.6, 0.00224
1025.8, 0.00223
1026.0, 0.00224
1026.2, 0.00226
1026.4, 0.00229
1026.6, 0.00225
1026.8, 0.00227
1027.0, 0.00228
1027.2, 0.00225
1027.4, 0.0023
1027.6, 0.00234
1027.8, 0.00234
1028.0, 0.00237
1028.2, 0.00239
1028.4, 0.00237
1028.6, 0.00244
1028.8, 0.00251
1029.0, 0.00252
1029.2, 0.00259
1029.4, 0.0027
1029.6, 0.00273
1029.8, 0.00279
1030.0, 0.00287
1030.2, 0.00294
1030.4, 0.00308
1030.6, 0.00321
1030.8, 0.00334
1031.0, 0.00351
1031.2, 0.00367
1031.4, 0.00381
1031.6, 0.00399
1031.8, 0.00424
1032.0, 0.00445
1032.2, 0.00469
1032.4, 0.00505
1032.6, 0.00526
1032.8, 0.00562
1033.0, 0.00589
1033.2, 0.00622
1033.4, 0.00654
1033.6, 0.00693
1033.8, 0.00726
1034.0, 0.00763
1034.2, 0.00794
1034.4, 0.00816
1034.6, 0.0084
1034.8, 0.00858
1035.0, 0.00863
1035.2, 0.00878
1035.4, 0.00882
1035.6, 0.00872
1035.8, 0.0086
1036.0, 0.00846
1036.2, 0.00823
1036.4, 0.00801
1036.6, 0.00782
1036.8, 0.00758
1037.0, 0.00729
1037.2, 0.00705
1037.4, 0.00679
1037.6, 0.00651
1037.8, 0.00632
1038.0, 0.00608
1038.2, 0.00588
1038.4, 0.00573
1038.6, 0.00554
1038.8, 0.00536
1039.0, 0.00525
1039.2, 0.00509
1039.4, 0.00501
1039.6, 0.00493
1039.8, 0.0048
1040.0, 0.00477
1040.2, 0.00472
1040.4, 0.00466
1040.6, 0.00465
1040.8, 0.00463
1041.0, 0.00457
1041.2, 0.00457
1041.4, 0.0046
1041.6, 0.0046
1041.8, 0.00465
1042.0, 0.00467
1042.2, 0.0047
1042.4, 0.00473
1042.6, 0.00478
1042.8, 0.00482
1043.0, 0.00489
1043.2, 0.00494
1043.4, 0.00503
1043.6, 0.00512
1043.8, 0.00516
1044.0, 0.0053
1044.2, 0.00533
1044.4, 0.00542
1044.6, 0.00545
1044.8, 0.00551
1045.0, 0.0056
1045.2, 0.00585
1045.4, 0.00589
1045.6, 0.00592
1045.8, 0.00596
1046.0, 0.00596
1046.2, 0.00598
1046.4, 0.00592
1046.6, 0.00595
1046.8, 0.00594
1047.0, 0.00591
1047.2, 0.00584
1047.4, 0.00583
1047.6, 0.00576
1047.8, 0.0057
1048.0, 0.00568
1048.2, 0.0056
1048.4, 0.00555
1048.6, 0.00548
1048.8, 0.00538
1049.0, 0.0053
1049.2, 0.00525
1049.4, 0.00521
1049.6, 0.00514
1049.8, 0.00512
1050.0, 0.00505
1050.2, 0.00502
1050.4, 0.00494
1050.6, 0.0049
1050.8, 0.00489
1051.0, 0.00488
1051.2, 0.00488
1051.4, 0.0049
1051.6, 0.00487
1051.8, 0.00485
1052.0, 0.00488
1052.2, 0.00494
1052.4, 0.00496
1052.6, 0.00497
1052.8, 0.00504
1053.0, 0.00505
1053.2, 0.00508
1053.4, 0.00519
1053.6, 0.00523
1053.8, 0.00532
1054.0, 0.0054
1054.2, 0.00548
1054.4, 0.00556
1054.6, 0.00565
1054.8, 0.00575
1055.0, 0.00588
1055.2, 0.00598
1055.4, 0.00611
1055.6, 0.0062
1055.8, 0.0063
1056.0, 0.00641
1056.2, 0.00651
1056.4, 0.00663
1056.6, 0.00677
1056.8, 0.00682
1057.0, 0.00692
1057.2, 0.00699
1057.4, 0.00708
1057.6, 0.00709
1057.8, 0.00718
1058.0, 0.00724
1058.2, 0.00725
1058.4, 0.00729
1058.6, 0.00727
1058.8, 0.0073
1059.0, 0.00729
1059.2, 0.00728
1059.4, 0.00726
1059.6, 0.00718
1059.8, 0.00714
1060.0, 0.0071
1060.2, 0.00703
1060.4, 0.00701
1060.6, 0.00697
1060.8, 0.00691
1061.0, 0.00688
1061.2, 0.00681
1061.4, 0.00682
1061.6, 0.00678
1061.8, 0.00672
1062.0, 0.00671
1062.2, 0.00667
1062.4, 0.00664
1062.6, 0.00664
1062.8, 0.00668
1063.0, 0.00665
1063.2, 0.00664
1063.4, 0.00666
1063.6, 0.00664
1063.8, 0.00673
1064.0, 0.00679
1064.2, 0.0068
1064.4, 0.00692
1064.6, 0.00693
1064.8, 0.00699
1065.0, 0.00793
1065.2, 0.00799
1065.4, 0.00807
1065.6, 0.00819
1065.8, 0.00834
1066.0, 0.00847
1066.2, 0.0086
1066.4, 0.00874
1066.6, 0.0087
1066.8, 0.00886
1067.0, 0.00897
1067.2, 0.00904
1067.4, 0.00918
1067.6, 0.00912
1067.8, 0.00922
1068.0, 0.00915
1068.2, 0.00909
1068.4, 0.00904
1068.6, 0.00898
1068.8, 0.00889
1069.0, 0.00878
1069.2, 0.00872
1069.4, 0.00856
1069.6, 0.00842
1069.8, 0.00823
1070.0, 0.00806
1070.2, 0.00791
1070.4, 0.00774
1070.6, 0.00749
1070.8, 0.0073
1071.0, 0.00704
1071.2, 0.00687
1071.4, 0.0067
1071.6, 0.00647
1071.8, 0.00624
1072.0, 0.00598
1072.2, 0.00597
1072.4, 0.00573
1072.6, 0.00554
1072.8, 0.00536
1073.0, 0.00528
1073.2, 0.00512
1073.4, 0.00502
1073.6, 0.00486
1073.8, 0.00472
1074.0, 0.00474
1074.2, 0.00467
1074.4, 0.00452
1074.6, 0.00447
1074.8, 0.00434
1075.0, 0.00415
1075.2, 0.00398
1075.4, 0.00394
1075.6, 0.0039
1075.8, 0.00386
1076.0, 0.00383
1076.2, 0.0038
1076.4, 0.00378
1076.6, 0.00375
1076.8, 0.00376
1077.0, 0.00377
1077.2, 0.00378
1077.4, 0.00379
1077.6, 0.00381
1077.8, 0.00382
1078.0, 0.00383
1078.2, 0.00387
1078.4, 0.00391
1078.6, 0.00395
1078.8, 0.00399
1079.0, 0.00404
1079.2, 0.00409
1079.4, 0.00414
1079.6, 0.00421
1079.8, 0.00429
1080.0, 0.00436
1080.2, 0.00445
1080.4, 0.00453
1080.6, 0.00463
1080.8, 0.00472
1081.0, 0.00482
1081.2, 0.00491
1081.4, 0.00501
1081.6, 0.00511
1081.8, 0.00521
1082.0, 0.00532
1082.2, 0.00543
1082.4, 0.00554
1082.6, 0.00566
1082.8, 0.00577
1083.0, 0.00588
1083.2, 0.00599
1083.4, 0.00609
1083.6, 0.00618
1083.8, 0.00628
1084.0, 0.00635
1084.2, 0.00641
1084.4, 0.00647
1084.6, 0.00653
1084.8, 0.00658
1085.0, 0.00662
1085.2, 0.00666
1085.4, 0.0067
1085.6, 0.00673
1085.8, 0.00672
1086.0, 0.00672
1086.2, 0.00671
1086.4, 0.00671
1086.6, 0.00669
1086.8, 0.00668
1087.0, 0.00667
1087.2, 0.00662
1087.4, 0.00658
1087.6, 0.00653
1087.8, 0.00648
1088.0, 0.00645
1088.2, 0.00641
1088.4, 0.00637
1088.6, 0.00635
1088.8, 0.00633
1089.0, 0.00631
1089.2, 0.00629
1089.4, 0.00627
1089.6, 0.00625
1089.8, 0.00624
1090.0, 0.00623
1090.2, 0.00625
1090.4, 0.00626
1090.6, 0.00627
1090.8, 0.00629
1091.0, 0.00632
1091.2, 0.00635
1091.4, 0.00638
1091.6, 0.00644
1091.8, 0.00649
1092.0, 0.00655
1092.2, 0.00662
1092.4, 0.00672
1092.6, 0.00681
1092.8, 0.00691
1093.0, 0.00699
1093.2, 0.00708
1093.4, 0.00717
1093.6, 0.00727
1093.8, 0.00738
1094.0, 0.00749
1094.2, 0.0076
1094.4, 0.00772
1094.6, 0.00787
1094.8, 0.00803
1095.0, 0.00818
1095.2, 0.00834
1095.4, 0.00846
1095.6, 0.00857
1095.8, 0.00868
1096.0, 0.00879
1096.2, 0.00887
1096.4, 0.00895
1096.6, 0.00903
1096.8, 0.00909
1097.0, 0.00913
1097.2, 0.00917
1097.4, 0.00921
1097.6, 0.00922
1097.8, 0.00924
1098.0, 0.00925
1098.2, 0.00925
1098.4, 0.00919
1098.6, 0.00914
1098.8, 0.00908
1099.0, 0.009
1099.2, 0.0089
1099.4, 0.00881
1099.6, 0.00871
1099.8, 0.00858
1100.0, 0.00845
1100.2, 0.00833
1100.4, 0.0082
1100.6, 0.00807
1100.8, 0.00794
1101.0, 0.00781
1101.2, 0.00768
1101.4, 0.00756
1101.6, 0.00745
1101.8, 0.00735
1102.0, 0.00723
1102.2, 0.00711
1102.4, 0.007
1102.6, 0.00688
1102.8, 0.00676
1103.0, 0.00664
1103.2, 0.00652
1103.4, 0.00645
1103.6, 0.00638
1103.8, 0.00632
1104.0, 0.00625
1104.2, 0.00621
1104.4, 0.00617
1104.6, 0.00613
1104.8, 0.00609
1105.0, 0.00605
1105.2, 0.00602
1105.4, 0.00603
1105.6, 0.00603
1105.8, 0.00603
1106.0, 0.00603
1106.2, 0.00603
1106.4, 0.00606
1106.6, 0.00609
1106.8, 0.00613
1107.0, 0.00616
1107.2, 0.0062
1107.4, 0.00623
1107.6, 0.00631
1107.8, 0.00639
1108.0, 0.00647
1108.2, 0.00655
1108.4, 0.00664
1108.6, 0.00672
1108.8, 0.0068
1109.0, 0.00689
1109.2, 0.00697
1109.4, 0.00706
1109.6, 0.00715
1109.8, 0.00724
1110.0, 0.00733