#Typical Measured Spectrum of Semrock FF01-635/18 Optical Filter	
#For wavelengths between 320 and 1120 nm, values near or below 3e-7 (Optical Density 6.5) are measurement noise limited.
#For wavelengths < 320 nm and > 1120 nm, values near or below 3e-6 (Optical Density 5.5) are measurement noise limited. 
#Data format:  Wavelength (nm) <tab> Transmission (0 to 1)
#Type: Filter
#Name: Semrock FF01-635_18
wavelength,transmission
265.0, 1.6112e-05
265.2, 1.4363e-05
265.4, 1.2805e-05
265.6, 1.1415e-05
265.8, 1.0176e-05
266.0, 9.0719e-06
266.2, 8.0874e-06
266.4, 7.2097e-06
266.6, 6.4273e-06
266.8, 5.7298e-06
267.0, 5.1079e-06
267.2, 4.5536e-06
267.4, 4.0594e-06
267.6, 3.6189e-06
267.8, 3.2262e-06
268.0, 2.876e-06
268.2, 2.5639e-06
268.4, 2.2857e-06
268.6, 2.0376e-06
268.8, 1.8165e-06
269.0, 1.6194e-06
269.2, 1.4436e-06
269.4, 1.287e-06
269.6, 1.2695e-06
269.8, 1.2568e-06
270.0, 1.2443e-06
270.2, 1.2319e-06
270.4, 1.2196e-06
270.6, 1.2075e-06
270.8, 1.1955e-06
271.0, 1.1836e-06
271.2, 1.1718e-06
271.4, 1.1601e-06
271.6, 1.1485e-06
271.8, 1.1371e-06
272.0, 1.1258e-06
272.2, 1.1146e-06
272.4, 1.1035e-06
272.6, 1.0925e-06
272.8, 1.0816e-06
273.0, 1.0708e-06
273.2, 1.0601e-06
273.4, 1.0496e-06
273.6, 1.0391e-06
273.8, 1.0288e-06
274.0, 1.0185e-06
274.2, 1.0098e-06
274.4, 1.0022e-06
274.6, 9.9469e-07
274.8, 9.8719e-07
275.0, 9.7976e-07
275.2, 9.7051e-07
275.4, 9.6134e-07
275.6, 9.5226e-07
275.8, 9.4327e-07
276.0, 9.3437e-07
276.2, 9.2554e-07
276.4, 9.168e-07
276.6, 9.0815e-07
276.8, 8.9957e-07
277.0, 8.9108e-07
277.2, 8.8266e-07
277.4, 8.7433e-07
277.6, 8.6607e-07
277.8, 8.579e-07
278.0, 9.1726e-07
278.2, 1.0467e-06
278.4, 1.1943e-06
278.6, 1.3628e-06
278.8, 1.5551e-06
279.0, 1.7745e-06
279.2, 2.0248e-06
279.4, 2.3105e-06
279.6, 2.6365e-06
279.8, 3.0084e-06
280.0, 3.4329e-06
280.2, 3.9172e-06
280.4, 4.4698e-06
280.6, 5.1004e-06
280.8, 5.82e-06
281.0, 6.6411e-06
281.2, 7.578e-06
281.4, 8.6471e-06
281.6, 9.8671e-06
281.8, 1.1259e-05
282.0, 1.2848e-05
282.2, 1.466e-05
282.4, 1.6728e-05
282.6, 1.7701e-05
282.8, 1.3121e-05
283.0, 9.7267e-06
283.2, 7.2104e-06
283.4, 5.345e-06
283.6, 3.9622e-06
283.8, 2.9371e-06
284.0, 2.1773e-06
284.2, 1.614e-06
284.4, 1.1964e-06
284.6, 8.8692e-07
284.8, 6.5746e-07
285.0, 4.8737e-07
285.2, 4.7915e-07
285.4, 4.7106e-07
285.6, 4.631e-07
285.8, 4.5529e-07
286.0, 4.476e-07
286.2, 4.4004e-07
286.4, 4.3262e-07
286.6, 4.2531e-07
286.8, 4.1813e-07
287.0, 4.1107e-07
287.2, 4.0414e-07
287.4, 3.9731e-07
287.6, 3.9061e-07
287.8, 3.8401e-07
288.0, 3.7679e-07
288.2, 3.6928e-07
288.4, 3.6192e-07
288.6, 3.5471e-07
288.8, 3.4764e-07
289.0, 3.4072e-07
289.2, 3.3393e-07
289.4, 3.2727e-07
289.6, 3.2075e-07
289.8, 3.1436e-07
290.0, 3.081e-07
290.2, 3.0196e-07
290.4, 2.9594e-07
290.6, 2.9004e-07
290.8, 2.8426e-07
291.0, 2.786e-07
291.2, 2.7305e-07
291.4, 2.6761e-07
291.6, 2.6227e-07
291.8, 2.5705e-07
292.0, 2.5192e-07
292.2, 2.469e-07
292.4, 2.4198e-07
292.6, 2.4264e-07
292.8, 2.5803e-07
293.0, 2.7439e-07
293.2, 2.9179e-07
293.4, 3.1029e-07
293.6, 3.2996e-07
293.8, 3.5088e-07
294.0, 3.7313e-07
294.2, 3.9679e-07
294.4, 4.2194e-07
294.6, 4.487e-07
294.8, 4.7715e-07
295.0, 5.074e-07
295.2, 4.5095e-07
295.4, 4.0077e-07
295.6, 3.5618e-07
295.8, 3.3816e-07
296.0, 3.3431e-07
296.2, 3.305e-07
296.4, 3.2674e-07
296.6, 3.2302e-07
296.8, 3.1934e-07
297.0, 3.157e-07
297.2, 3.121e-07
297.4, 3.0855e-07
297.6, 3.0503e-07
297.8, 3.0156e-07
298.0, 2.9812e-07
298.2, 2.9473e-07
298.4, 2.9137e-07
298.6, 2.8805e-07
298.8, 2.8477e-07
299.0, 2.8153e-07
299.2, 2.7832e-07
299.4, 2.7515e-07
299.6, 2.7201e-07
299.8, 2.6892e-07
300.0, 2.6585e-07
300.2, 2.6282e-07
300.4, 2.6482e-07
300.6, 2.809e-07
300.8, 2.9796e-07
301.0, 3.1605e-07
301.2, 3.3525e-07
301.4, 3.5561e-07
301.6, 3.772e-07
301.8, 4.0011e-07
302.0, 4.2441e-07
302.2, 4.5018e-07
302.4, 4.7752e-07
302.6, 5.0652e-07
302.8, 5.3728e-07
303.0, 5.6991e-07
303.2, 6.0452e-07
303.4, 6.4124e-07
303.6, 6.8018e-07
303.8, 7.2149e-07
304.0, 7.653e-07
304.2, 8.1178e-07
304.4, 8.6108e-07
304.6, 9.1337e-07
304.8, 9.6884e-07
305.0, 1.0277e-06
305.2, 8.5245e-07
305.4, 7.071e-07
305.6, 5.8654e-07
305.8, 4.8653e-07
306.0, 4.0357e-07
306.2, 3.3476e-07
306.4, 2.7768e-07
306.6, 2.3033e-07
306.8, 1.9106e-07
307.0, 1.6692e-07
307.2, 1.7832e-07
307.4, 1.905e-07
307.6, 2.0351e-07
307.8, 2.1741e-07
308.0, 2.3226e-07
308.2, 2.4813e-07
308.4, 2.6507e-07
308.6, 2.8318e-07
308.8, 3.0252e-07
309.0, 3.2319e-07
309.2, 3.4526e-07
309.4, 3.6884e-07
309.6, 3.9403e-07
309.8, 4.2095e-07
310.0, 4.497e-07
310.2, 4.8042e-07
310.4, 5.1323e-07
310.6, 5.4828e-07
310.8, 5.8573e-07
311.0, 6.2574e-07
311.2, 6.6848e-07
311.4, 7.1414e-07
311.6, 7.6292e-07
311.8, 7.5222e-07
312.0, 7.3125e-07
312.2, 7.1086e-07
312.4, 6.9104e-07
312.6, 6.7178e-07
312.8, 6.5305e-07
313.0, 6.3485e-07
313.2, 6.1715e-07
313.4, 5.9994e-07
313.6, 5.8322e-07
313.8, 5.6696e-07
314.0, 5.5115e-07
314.2, 5.3579e-07
314.4, 5.2085e-07
314.6, 5.0633e-07
314.8, 4.9221e-07
315.0, 4.7849e-07
315.2, 4.6515e-07
315.4, 4.5218e-07
315.6, 4.3958e-07
315.8, 4.2732e-07
316.0, 4.1541e-07
316.2, 4.0383e-07
316.4, 3.8807e-07
316.6, 3.6881e-07
316.8, 3.5051e-07
317.0, 3.3311e-07
317.2, 3.1658e-07
317.4, 3.0087e-07
317.6, 2.8594e-07
317.8, 2.7175e-07
318.0, 2.5827e-07
318.2, 2.4545e-07
318.4, 2.3327e-07
318.6, 2.2169e-07
318.8, 2.1069e-07
319.0, 2.0024e-07
319.2, 1.903e-07
319.4, 1.8086e-07
319.6, 1.7188e-07
319.8, 1.6335e-07
320.0, 1.5525e-07
320.2, 1.4754e-07
320.4, 1.4022e-07
320.6, 1.3326e-07
320.8, 1.2665e-07
321.0, 1.2132e-07
321.2, 1.2051e-07
321.4, 1.1971e-07
321.6, 1.1891e-07
321.8, 1.1811e-07
322.0, 1.1732e-07
322.2, 1.1653e-07
322.4, 1.1575e-07
322.6, 1.1498e-07
322.8, 1.1421e-07
323.0, 1.1345e-07
323.2, 1.1269e-07
323.4, 1.1193e-07
323.6, 1.1119e-07
323.8, 1.1044e-07
324.0, 1.097e-07
324.2, 1.0897e-07
324.4, 1.0824e-07
324.6, 1.0751e-07
324.8, 1.068e-07
325.0, 1.0608e-07
325.2, 1.0537e-07
325.4, 1.0467e-07
325.6, 1.0397e-07
325.8, 1.0284e-07
326.0, 1.0166e-07
326.2, 1.0049e-07
326.4, 9.9333e-08
326.6, 9.8192e-08
326.8, 9.7063e-08
327.0, 9.5947e-08
327.2, 9.4845e-08
327.4, 9.3755e-08
327.6, 9.2677e-08
327.8, 9.1612e-08
328.0, 9.0559e-08
328.2, 8.9518e-08
328.4, 8.849e-08
328.6, 8.7473e-08
328.8, 8.6467e-08
329.0, 8.5473e-08
329.2, 8.4491e-08
329.4, 8.352e-08
329.6, 8.256e-08
329.8, 8.1611e-08
330.0, 8.0673e-08
330.2, 7.9746e-08
330.4, 8.1909e-08
330.6, 8.6702e-08
330.8, 9.1775e-08
331.0, 9.7145e-08
331.2, 1.0283e-07
331.4, 1.0885e-07
331.6, 1.1522e-07
331.8, 1.2196e-07
332.0, 1.2909e-07
332.2, 1.3665e-07
332.4, 1.4464e-07
332.6, 1.5311e-07
332.8, 1.6207e-07
333.0, 1.7155e-07
333.2, 1.8159e-07
333.4, 1.9221e-07
333.6, 2.0346e-07
333.8, 2.1537e-07
334.0, 2.2797e-07
334.2, 2.4131e-07
334.4, 2.5543e-07
334.6, 2.7038e-07
334.8, 2.862e-07
335.0, 3.0043e-07
335.2, 2.9901e-07
335.4, 2.976e-07
335.6, 2.9619e-07
335.8, 2.9478e-07
336.0, 2.9339e-07
336.2, 2.92e-07
336.4, 2.9062e-07
336.6, 2.8924e-07
336.8, 2.8787e-07
337.0, 2.8116e-07
337.2, 2.6028e-07
337.4, 2.4095e-07
337.6, 2.2306e-07
337.8, 2.065e-07
338.0, 1.9116e-07
338.2, 1.7697e-07
338.4, 1.6382e-07
338.6, 1.5166e-07
338.8, 1.404e-07
339.0, 1.2997e-07
339.2, 1.2032e-07
339.4, 1.1138e-07
339.6, 1.0311e-07
339.8, 9.5455e-08
340.0, 8.8366e-08
340.2, 8.1804e-08
340.4, 7.5729e-08
340.6, 7.0105e-08
340.8, 6.4899e-08
341.0, 6.008e-08
341.2, 5.5618e-08
341.4, 5.1488e-08
341.6, 4.7664e-08
341.8, 5.3528e-08
342.0, 6.0727e-08
342.2, 6.8894e-08
342.4, 7.816e-08
342.6, 8.8672e-08
342.8, 1.006e-07
343.0, 1.1413e-07
343.2, 1.2948e-07
343.4, 1.4689e-07
343.6, 1.6665e-07
343.8, 1.8906e-07
344.0, 2.1449e-07
344.2, 2.4333e-07
344.4, 2.7606e-07
344.6, 3.1319e-07
344.8, 3.5531e-07
345.0, 4.0309e-07
345.2, 4.5731e-07
345.4, 5.1881e-07
345.6, 5.8859e-07
345.8, 6.6775e-07
346.0, 7.5756e-07
346.2, 8.5944e-07
346.4, 8.2554e-07
346.6, 7.2501e-07
346.8, 6.3672e-07
347.0, 5.5918e-07
347.2, 4.9108e-07
347.4, 4.3128e-07
347.6, 3.7875e-07
347.8, 3.3263e-07
348.0, 2.9212e-07
348.2, 2.5655e-07
348.4, 2.253e-07
348.6, 1.9787e-07
348.8, 1.7377e-07
349.0, 1.5261e-07
349.2, 1.3402e-07
349.4, 1.177e-07
349.6, 1.0337e-07
349.8, 9.078e-08
350.0, 7.9725e-08
350.2, 7.0016e-08
350.4, 6.149e-08
350.6, 5.4001e-08
350.8, 4.7425e-08
351.0, 4.5397e-08
351.2, 5.0484e-08
351.4, 5.614e-08
351.6, 6.243e-08
351.8, 6.9425e-08
352.0, 7.7203e-08
352.2, 8.5853e-08
352.4, 9.5472e-08
352.6, 1.0617e-07
352.8, 1.1806e-07
353.0, 1.3129e-07
353.2, 1.46e-07
353.4, 1.6236e-07
353.6, 1.8055e-07
353.8, 2.0078e-07
354.0, 2.2328e-07
354.2, 2.4829e-07
354.4, 2.7611e-07
354.6, 3.0705e-07
354.8, 3.4145e-07
355.0, 3.7971e-07
355.2, 4.2225e-07
355.4, 4.6956e-07
355.6, 5.1824e-07
355.8, 5.2988e-07
356.0, 5.4178e-07
356.2, 5.5395e-07
356.4, 5.664e-07
356.6, 5.7912e-07
356.8, 5.9213e-07
357.0, 6.0543e-07
357.2, 6.1904e-07
357.4, 6.3294e-07
357.6, 6.4716e-07
357.8, 6.617e-07
358.0, 6.7656e-07
358.2, 6.9176e-07
358.4, 7.073e-07
358.6, 7.2319e-07
358.8, 7.3944e-07
359.0, 7.5605e-07
359.2, 7.7304e-07
359.4, 7.904e-07
359.6, 8.0816e-07
359.8, 8.2632e-07
360.0, 8.4488e-07
360.2, 8.6386e-07
360.4, 8.5816e-07
360.6, 8.4729e-07
360.8, 8.3657e-07
361.0, 8.2598e-07
361.2, 8.1552e-07
361.4, 8.052e-07
361.6, 7.9501e-07
361.8, 7.8495e-07
362.0, 7.7501e-07
362.2, 7.652e-07
362.4, 7.5551e-07
362.6, 7.4595e-07
362.8, 7.3651e-07
363.0, 7.2718e-07
363.2, 7.1798e-07
363.4, 7.0889e-07
363.6, 6.9992e-07
363.8, 6.9106e-07
364.0, 6.8231e-07
364.2, 6.7367e-07
364.4, 6.6515e-07
364.6, 6.5673e-07
364.8, 6.4841e-07
365.0, 6.0131e-07
365.2, 4.7829e-07
365.4, 3.8044e-07
365.6, 3.0261e-07
365.8, 2.407e-07
366.0, 1.9145e-07
366.2, 1.5228e-07
366.4, 1.2113e-07
366.6, 9.6348e-08
366.8, 7.6637e-08
367.0, 6.7277e-08
367.2, 6.7132e-08
367.4, 6.6988e-08
367.6, 6.6845e-08
367.8, 6.6701e-08
368.0, 6.6558e-08
368.2, 6.6415e-08
368.4, 6.6273e-08
368.6, 6.613e-08
368.8, 6.5989e-08
369.0, 6.5847e-08
369.2, 6.5706e-08
369.4, 6.5565e-08
369.6, 6.5424e-08
369.8, 6.5284e-08
370.0, 6.5144e-08
370.2, 6.5004e-08
370.4, 6.4864e-08
370.6, 6.4725e-08
370.8, 7.2282e-08
371.0, 8.3026e-08
371.2, 9.5366e-08
371.4, 1.0954e-07
371.6, 1.2582e-07
371.8, 1.4452e-07
372.0, 1.66e-07
372.2, 1.9068e-07
372.4, 2.1902e-07
372.6, 2.5157e-07
372.8, 2.8897e-07
373.0, 3.3192e-07
373.2, 3.8125e-07
373.4, 4.3792e-07
373.6, 5.03e-07
373.8, 5.7777e-07
374.0, 6.6364e-07
374.2, 7.6228e-07
374.4, 8.4188e-07
374.6, 7.7271e-07
374.8, 7.0922e-07
375.0, 6.5095e-07
375.2, 5.9747e-07
375.4, 5.4838e-07
375.6, 5.0332e-07
375.8, 4.6197e-07
376.0, 4.2401e-07
376.2, 3.8917e-07
376.4, 3.572e-07
376.6, 3.2785e-07
376.8, 3.0091e-07
377.0, 2.7619e-07
377.2, 2.535e-07
377.4, 2.3267e-07
377.6, 2.1355e-07
377.8, 1.9601e-07
378.0, 1.799e-07
378.2, 1.7423e-07
378.4, 1.7617e-07
378.6, 1.7812e-07
378.8, 1.801e-07
379.0, 1.821e-07
379.2, 1.8413e-07
379.4, 1.8617e-07
379.6, 1.8824e-07
379.8, 1.9033e-07
380.0, 1.9245e-07
380.2, 1.9458e-07
380.4, 1.9675e-07
380.6, 1.9893e-07
380.8, 2.0114e-07
381.0, 2.0338e-07
381.2, 2.0564e-07
381.4, 2.0792e-07
381.6, 2.1023e-07
381.8, 2.1256e-07
382.0, 1.9731e-07
382.2, 1.8225e-07
382.4, 1.6834e-07
382.6, 1.5548e-07
382.8, 1.4361e-07
383.0, 1.3265e-07
383.2, 1.2252e-07
383.4, 1.1317e-07
383.6, 1.0452e-07
383.8, 9.6544e-08
384.0, 8.9173e-08
384.2, 8.2365e-08
384.4, 7.6076e-08
384.6, 7.0268e-08
384.8, 6.4903e-08
385.0, 5.9948e-08
385.2, 5.5371e-08
385.4, 5.1143e-08
385.6, 4.8441e-08
385.8, 4.8177e-08
386.0, 4.7915e-08
386.2, 4.7653e-08
386.4, 4.7394e-08
386.6, 4.7135e-08
386.8, 4.6878e-08
387.0, 4.6623e-08
387.2, 4.6369e-08
387.4, 4.6116e-08
387.6, 4.5865e-08
387.8, 4.5615e-08
388.0, 4.5366e-08
388.2, 4.5119e-08
388.4, 4.4873e-08
388.6, 4.4628e-08
388.8, 4.4385e-08
389.0, 4.4143e-08
389.2, 4.3902e-08
389.4, 4.5495e-08
389.6, 4.7812e-08
389.8, 5.0248e-08
390.0, 5.2807e-08
390.2, 5.5497e-08
390.4, 5.8324e-08
390.6, 6.1295e-08
390.8, 6.4417e-08
391.0, 6.7699e-08
391.2, 7.1147e-08
391.4, 7.4772e-08
391.6, 7.858e-08
391.8, 8.2583e-08
392.0, 8.679e-08
392.2, 6.2965e-08
392.4, 4.568e-08
392.6, 3.314e-08
392.8, 2.4043e-08
393.0, 2.2881e-08
393.2, 2.4014e-08
393.4, 2.5203e-08
393.6, 2.6451e-08
393.8, 2.776e-08
394.0, 2.9135e-08
394.2, 3.0578e-08
394.4, 3.2092e-08
394.6, 3.368e-08
394.8, 3.5348e-08
395.0, 3.7098e-08
395.2, 3.8935e-08
395.4, 4.0863e-08
395.6, 4.2886e-08
395.8, 4.501e-08
396.0, 4.7238e-08
396.2, 4.9577e-08
396.4, 5.2032e-08
396.6, 5.4004e-08
396.8, 5.2348e-08
397.0, 5.0744e-08
397.2, 4.9188e-08
397.4, 4.7681e-08
397.6, 4.6219e-08
397.8, 4.4802e-08
398.0, 4.3429e-08
398.2, 4.2098e-08
398.4, 4.0807e-08
398.6, 3.9556e-08
398.8, 3.8344e-08
399.0, 3.7169e-08
399.2, 3.6029e-08
399.4, 3.4925e-08
399.6, 3.3854e-08
399.8, 3.2817e-08
400.0, 3.1811e-08
400.2, 3.0836e-08
400.4, 3.2219e-08
400.6, 3.5708e-08
400.8, 3.9576e-08
401.0, 4.3862e-08
401.2, 4.8612e-08
401.4, 5.3877e-08
401.6, 5.9713e-08
401.8, 6.618e-08
402.0, 7.3347e-08
402.2, 8.1291e-08
402.4, 9.0095e-08
402.6, 9.9853e-08
402.8, 1.1067e-07
403.0, 1.2265e-07
403.2, 1.3594e-07
403.4, 1.5066e-07
403.6, 1.6698e-07
403.8, 1.8506e-07
404.0, 2.051e-07
404.2, 1.7564e-07
404.4, 1.5002e-07
404.6, 1.2814e-07
404.8, 1.0945e-07
405.0, 9.3481e-08
405.2, 7.9845e-08
405.4, 6.8198e-08
405.6, 5.825e-08
405.8, 4.9753e-08
406.0, 4.2495e-08
406.2, 3.6297e-08
406.4, 3.1002e-08
406.6, 2.648e-08
406.8, 2.2617e-08
407.0, 1.9318e-08
407.2, 1.65e-08
407.4, 1.4093e-08
407.6, 1.2037e-08
407.8, 1.1251e-08
408.0, 1.185e-08
408.2, 1.2481e-08
408.4, 1.3145e-08
408.6, 1.3845e-08
408.8, 1.4582e-08
409.0, 1.5359e-08
409.2, 1.6176e-08
409.4, 1.7038e-08
409.6, 1.7945e-08
409.8, 1.89e-08
410.0, 1.9906e-08
410.2, 2.0966e-08
410.4, 2.2082e-08
410.6, 2.3258e-08
410.8, 2.4496e-08
411.0, 2.58e-08
411.2, 2.7174e-08
411.4, 2.8621e-08
411.6, 2.9045e-08
411.8, 2.9326e-08
412.0, 2.9611e-08
412.2, 2.9897e-08
412.4, 3.0187e-08
412.6, 3.048e-08
412.8, 3.0775e-08
413.0, 3.1073e-08
413.2, 3.1374e-08
413.4, 3.1678e-08
413.6, 3.1985e-08
413.8, 3.2295e-08
414.0, 3.2608e-08
414.2, 3.2924e-08
414.4, 3.3243e-08
414.6, 3.3565e-08
414.8, 3.3891e-08
415.0, 3.4219e-08
415.2, 3.5121e-08
415.4, 3.7211e-08
415.6, 3.9425e-08
415.8, 4.1771e-08
416.0, 4.4256e-08
416.2, 4.6889e-08
416.4, 4.9679e-08
416.6, 5.2635e-08
416.8, 5.5767e-08
417.0, 5.9086e-08
417.2, 6.2601e-08
417.4, 6.6326e-08
417.6, 7.0273e-08
417.8, 7.4454e-08
418.0, 7.8884e-08
418.2, 8.3578e-08
418.4, 8.8551e-08
418.6, 9.382e-08
418.8, 9.9402e-08
419.0, 9.6896e-08
419.2, 9.2624e-08
419.4, 8.854e-08
419.6, 8.4637e-08
419.8, 8.0905e-08
420.0, 7.7338e-08
420.2, 7.3928e-08
420.4, 7.0669e-08
420.6, 6.7553e-08
420.8, 6.4575e-08
421.0, 6.1728e-08
421.2, 5.9007e-08
421.4, 5.6405e-08
421.6, 5.3918e-08
421.8, 5.1541e-08
422.0, 4.9269e-08
422.2, 4.7097e-08
422.4, 4.502e-08
422.6, 4.3585e-08
422.8, 4.3527e-08
423.0, 4.3469e-08
423.2, 4.3411e-08
423.4, 4.3353e-08
423.6, 4.3296e-08
423.8, 4.3238e-08
424.0, 4.318e-08
424.2, 4.3123e-08
424.4, 4.3066e-08
424.6, 4.3008e-08
424.8, 4.2951e-08
425.0, 4.2894e-08
425.2, 4.2837e-08
425.4, 4.278e-08
425.6, 4.2723e-08
425.8, 4.2666e-08
426.0, 4.2609e-08
426.2, 4.2553e-08
426.4, 4.3753e-08
426.6, 4.5358e-08
426.8, 4.7022e-08
427.0, 4.8748e-08
427.2, 5.1047e-08
427.4, 5.3454e-08
427.6, 5.5975e-08
427.8, 5.8615e-08
428.0, 6.1379e-08
428.2, 6.4274e-08
428.4, 6.7305e-08
428.6, 7.0479e-08
428.8, 7.3803e-08
429.0, 7.7284e-08
429.2, 8.0929e-08
429.4, 8.4745e-08
429.6, 8.8742e-08
429.8, 9.2927e-08
430.0, 9.731e-08
430.2, 1.005e-07
430.4, 1.005e-07
430.6, 1.005e-07
430.8, 1.005e-07
431.0, 1.005e-07
431.2, 1.005e-07
431.4, 1.005e-07
431.6, 1.005e-07
431.8, 1.005e-07
432.0, 1.005e-07
432.2, 1.005e-07
432.4, 1.005e-07
432.6, 1.005e-07
432.8, 1.005e-07
433.0, 1.005e-07
433.2, 1.005e-07
433.4, 1.005e-07
433.6, 1.005e-07
433.8, 1.005e-07
434.0, 1.005e-07
434.2, 1.005e-07
434.4, 1.005e-07
434.6, 1.005e-07
434.8, 1.005e-07
435.0, 1.005e-07
435.2, 1.005e-07
435.4, 1.005e-07
435.6, 1.005e-07
435.8, 1.005e-07
436.0, 1.005e-07
436.2, 1.005e-07
436.4, 1.005e-07
436.6, 1.005e-07
436.8, 1.005e-07
437.0, 1.005e-07
437.2, 1.005e-07
437.4, 1.005e-07
437.6, 1.005e-07
437.8, 1.005e-07
438.0, 1.005e-07
438.2, 1.005e-07
438.4, 1.005e-07
438.6, 1.005e-07
438.8, 1.005e-07
439.0, 1.005e-07
439.2, 1.005e-07
439.4, 1.005e-07
439.6, 1.005e-07
439.8, 1.005e-07
440.0, 1.005e-07
440.2, 1.005e-07
440.4, 1.005e-07
440.6, 1.005e-07
440.8, 1.005e-07
441.0, 1.005e-07
441.2, 1.005e-07
441.4, 1.005e-07
441.6, 1.005e-07
441.8, 1.005e-07
442.0, 1.005e-07
442.2, 1.005e-07
442.4, 1.005e-07
442.6, 1.005e-07
442.8, 1.005e-07
443.0, 1.005e-07
443.2, 1.005e-07
443.4, 1.005e-07
443.6, 1.005e-07
443.8, 1.005e-07
444.0, 1.005e-07
444.2, 1.005e-07
444.4, 1.005e-07
444.6, 1.005e-07
444.8, 1.005e-07
445.0, 1.005e-07
445.2, 1.005e-07
445.4, 1.005e-07
445.6, 1.005e-07
445.8, 1.005e-07
446.0, 1.005e-07
446.2, 1.005e-07
446.4, 1.005e-07
446.6, 1.005e-07
446.8, 1.005e-07
447.0, 1.005e-07
447.2, 1.005e-07
447.4, 1.005e-07
447.6, 1.005e-07
447.8, 1.005e-07
448.0, 1.005e-07
448.2, 1.005e-07
448.4, 1.005e-07
448.6, 1.005e-07
448.8, 1.005e-07
449.0, 1.005e-07
449.2, 1.005e-07
449.4, 1.005e-07
449.6, 1.005e-07
449.8, 1.005e-07
450.0, 1.005e-07
450.2, 1.005e-07
450.4, 1.005e-07
450.6, 1.005e-07
450.8, 1.005e-07
451.0, 1.005e-07
451.2, 1.005e-07
451.4, 1.005e-07
451.6, 1.005e-07
451.8, 1.005e-07
452.0, 1.005e-07
452.2, 1.005e-07
452.4, 1.005e-07
452.6, 1.0048e-07
452.8, 1.0046e-07
453.0, 1.0044e-07
453.2, 1.0042e-07
453.4, 1.0039e-07
453.6, 1.0037e-07
453.8, 1.0035e-07
454.0, 1.0033e-07
454.2, 1.0031e-07
454.4, 1.0029e-07
454.6, 1.0027e-07
454.8, 1.0025e-07
455.0, 1.0023e-07
455.2, 1.0021e-07
455.4, 1.0019e-07
455.6, 1.0017e-07
455.8, 1.0015e-07
456.0, 1.0013e-07
456.2, 1.0013e-07
456.4, 1.0015e-07
456.6, 1.0017e-07
456.8, 1.0019e-07
457.0, 1.0021e-07
457.2, 1.0023e-07
457.4, 1.0026e-07
457.6, 1.0028e-07
457.8, 1.003e-07
458.0, 1.0032e-07
458.2, 1.0034e-07
458.4, 1.0036e-07
458.6, 1.0038e-07
458.8, 1.004e-07
459.0, 1.0042e-07
459.2, 1.0044e-07
459.4, 1.0046e-07
459.6, 1.0048e-07
459.8, 1.005e-07
460.0, 1.005e-07
460.2, 1.005e-07
460.4, 1.005e-07
460.6, 1.005e-07
460.8, 1.005e-07
461.0, 1.005e-07
461.2, 1.005e-07
461.4, 1.005e-07
461.6, 1.005e-07
461.8, 1.005e-07
462.0, 1.005e-07
462.2, 1.005e-07
462.4, 1.005e-07
462.6, 1.005e-07
462.8, 1.005e-07
463.0, 1.005e-07
463.2, 1.005e-07
463.4, 1.005e-07
463.6, 1.005e-07
463.8, 1.005e-07
464.0, 1.005e-07
464.2, 1.005e-07
464.4, 1.005e-07
464.6, 1.005e-07
464.8, 1.005e-07
465.0, 1.005e-07
465.2, 1.005e-07
465.4, 1.005e-07
465.6, 1.005e-07
465.8, 1.005e-07
466.0, 1.005e-07
466.2, 1.005e-07
466.4, 1.005e-07
466.6, 1.005e-07
466.8, 1.005e-07
467.0, 1.005e-07
467.2, 9.5337e-08
467.4, 7.1123e-08
467.6, 5.3058e-08
467.8, 3.9582e-08
468.0, 2.9529e-08
468.2, 3.205e-08
468.4, 3.4786e-08
468.6, 3.7755e-08
468.8, 4.0978e-08
469.0, 4.4477e-08
469.2, 4.8273e-08
469.4, 5.2394e-08
469.6, 5.6867e-08
469.8, 6.1722e-08
470.0, 6.6991e-08
470.2, 7.2709e-08
470.4, 7.8916e-08
470.6, 8.2198e-08
470.8, 7.6148e-08
471.0, 7.0544e-08
471.2, 6.5352e-08
471.4, 6.0542e-08
471.6, 5.6086e-08
471.8, 5.1958e-08
472.0, 4.8134e-08
472.2, 4.4591e-08
472.4, 4.131e-08
472.6, 3.8269e-08
472.8, 3.5453e-08
473.0, 3.2843e-08
473.2, 3.0426e-08
473.4, 2.8187e-08
473.6, 2.6112e-08
473.8, 2.419e-08
474.0, 2.241e-08
474.2, 2.0761e-08
474.4, 2.1356e-08
474.6, 2.2706e-08
474.8, 2.4142e-08
475.0, 2.5669e-08
475.2, 2.7292e-08
475.4, 2.9018e-08
475.6, 3.0854e-08
475.8, 3.2805e-08
476.0, 3.488e-08
476.2, 3.7086e-08
476.4, 3.9431e-08
476.6, 4.1925e-08
476.8, 4.4576e-08
477.0, 4.7395e-08
477.2, 5.0393e-08
477.4, 5.358e-08
477.6, 5.6968e-08
477.8, 6.0571e-08
478.0, 6.3784e-08
478.2, 6.5396e-08
478.4, 6.7049e-08
478.6, 6.8744e-08
478.8, 7.0481e-08
479.0, 7.2263e-08
479.2, 7.4089e-08
479.4, 7.5962e-08
479.6, 7.7881e-08
479.8, 7.985e-08
480.0, 8.1868e-08
480.2, 8.3937e-08
480.4, 8.6059e-08
480.6, 8.8234e-08
480.8, 9.0464e-08
481.0, 9.275e-08
481.2, 9.5094e-08
481.4, 9.7498e-08
481.6, 9.9962e-08
481.8, 9.4156e-08
482.0, 8.6652e-08
482.2, 7.9746e-08
482.4, 7.339e-08
482.6, 6.754e-08
482.8, 6.2157e-08
483.0, 5.7203e-08
483.2, 5.2644e-08
483.4, 4.8448e-08
483.6, 4.4587e-08
483.8, 4.1033e-08
484.0, 3.7762e-08
484.2, 3.4753e-08
484.4, 3.1983e-08
484.6, 2.9434e-08
484.8, 2.7088e-08
485.0, 2.4929e-08
485.2, 2.2942e-08
485.4, 2.1433e-08
485.6, 2.0687e-08
485.8, 1.9967e-08
486.0, 1.9272e-08
486.2, 1.8601e-08
486.4, 1.7954e-08
486.6, 1.7329e-08
486.8, 1.6726e-08
487.0, 1.6144e-08
487.2, 1.5582e-08
487.4, 1.504e-08
487.6, 1.4516e-08
487.8, 1.4011e-08
488.0, 1.3524e-08
488.2, 1.3053e-08
488.4, 1.2599e-08
488.6, 1.216e-08
488.8, 1.1737e-08
489.0, 1.1329e-08
489.2, 1.1651e-08
489.4, 1.2112e-08
489.6, 1.2591e-08
489.8, 1.3089e-08
490.0, 1.3607e-08
490.2, 1.4146e-08
490.4, 1.4705e-08
490.6, 1.5287e-08
490.8, 1.5892e-08
491.0, 1.6521e-08
491.2, 1.7175e-08
491.4, 1.7854e-08
491.6, 1.8561e-08
491.8, 1.9295e-08
492.0, 2.0059e-08
492.2, 2.0852e-08
492.4, 2.1677e-08
492.6, 2.2535e-08
492.8, 2.3114e-08
493.0, 2.3236e-08
493.2, 2.3358e-08
493.4, 2.3481e-08
493.6, 2.3604e-08
493.8, 2.3728e-08
494.0, 2.3853e-08
494.2, 2.3978e-08
494.4, 2.4104e-08
494.6, 2.4231e-08
494.8, 2.4358e-08
495.0, 2.4486e-08
495.2, 2.4614e-08
495.4, 2.4744e-08
495.6, 2.4874e-08
495.8, 2.5004e-08
496.0, 2.5136e-08
496.2, 2.5268e-08
496.4, 2.5401e-08
496.6, 2.6662e-08
496.8, 2.8037e-08
497.0, 2.9482e-08
497.2, 3.1003e-08
497.4, 3.2601e-08
497.6, 3.4282e-08
497.8, 3.605e-08
498.0, 3.7908e-08
498.2, 3.9863e-08
498.4, 4.1918e-08
498.6, 4.4079e-08
498.8, 4.6352e-08
499.0, 4.8742e-08
499.2, 5.1255e-08
499.4, 5.3898e-08
499.6, 5.6677e-08
499.8, 5.9599e-08
500.0, 6.2672e-08
500.2, 6.7623e-08
500.4, 7.2965e-08
500.6, 7.8729e-08
500.8, 8.3493e-08
501.0, 8.4298e-08
501.2, 8.5111e-08
501.4, 8.5932e-08
501.6, 8.676e-08
501.8, 8.7597e-08
502.0, 8.8442e-08
502.2, 8.9294e-08
502.4, 9.0156e-08
502.6, 9.1025e-08
502.8, 9.1903e-08
503.0, 9.2789e-08
503.2, 9.3684e-08
503.4, 9.4587e-08
503.6, 9.5499e-08
503.8, 9.642e-08
504.0, 9.735e-08
504.2, 9.8288e-08
504.4, 9.9236e-08
504.6, 9.9271e-08
504.8, 9.9024e-08
505.0, 9.8778e-08
505.2, 9.8532e-08
505.4, 9.8287e-08
505.6, 9.8043e-08
505.8, 9.7799e-08
506.0, 9.7556e-08
506.2, 9.7314e-08
506.4, 9.7072e-08
506.6, 9.683e-08
506.8, 9.659e-08
507.0, 9.6349e-08
507.2, 9.611e-08
507.4, 9.5871e-08
507.6, 9.5633e-08
507.8, 9.5395e-08
508.0, 9.5158e-08
508.2, 9.4891e-08
508.4, 9.4547e-08
508.6, 9.4205e-08
508.8, 9.3864e-08
509.0, 9.3524e-08
509.2, 9.3185e-08
509.4, 9.2848e-08
509.6, 9.2511e-08
509.8, 9.2176e-08
510.0, 9.1843e-08
510.2, 9.151e-08
510.4, 9.1179e-08
510.6, 9.0848e-08
510.8, 9.052e-08
511.0, 9.0192e-08
511.2, 8.9865e-08
511.4, 8.954e-08
511.6, 8.9215e-08
511.8, 8.8892e-08
512.0, 8.8654e-08
512.2, 8.8436e-08
512.4, 8.8219e-08
512.6, 8.8002e-08
512.8, 8.7786e-08
513.0, 8.757e-08
513.2, 8.7355e-08
513.4, 8.7141e-08
513.6, 8.6927e-08
513.8, 8.6713e-08
514.0, 8.65e-08
514.2, 8.6288e-08
514.4, 8.6076e-08
514.6, 8.5864e-08
514.8, 8.5654e-08
515.0, 8.5443e-08
515.2, 8.5233e-08
515.4, 8.5024e-08
515.6, 8.5486e-08
515.8, 8.7247e-08
516.0, 8.9044e-08
516.2, 9.0879e-08
516.4, 9.2751e-08
516.6, 9.4661e-08
516.8, 9.6611e-08
517.0, 9.8601e-08
517.2, 1.0063e-07
517.4, 1.0271e-07
517.6, 1.0482e-07
517.8, 1.0698e-07
518.0, 1.0918e-07
518.2, 1.1143e-07
518.4, 1.1373e-07
518.6, 1.1607e-07
518.8, 1.1846e-07
519.0, 1.209e-07
519.2, 1.2339e-07
519.4, 1.2542e-07
519.6, 1.2741e-07
519.8, 1.2944e-07
520.0, 1.3149e-07
520.2, 1.3358e-07
520.4, 1.3571e-07
520.6, 1.3786e-07
520.8, 1.4005e-07
521.0, 1.4228e-07
521.2, 1.4454e-07
521.4, 1.4684e-07
521.6, 1.4917e-07
521.8, 1.5154e-07
522.0, 1.5395e-07
522.2, 1.564e-07
522.4, 1.5889e-07
522.6, 1.6141e-07
522.8, 1.6398e-07
523.0, 1.651e-07
523.2, 1.6443e-07
523.4, 1.6375e-07
523.6, 1.6308e-07
523.8, 1.6242e-07
524.0, 1.6175e-07
524.2, 1.6109e-07
524.4, 1.6043e-07
524.6, 1.5978e-07
524.8, 1.5912e-07
525.0, 1.5847e-07
525.2, 1.5782e-07
525.4, 1.5718e-07
525.6, 1.5654e-07
525.8, 1.559e-07
526.0, 1.5526e-07
526.2, 1.5462e-07
526.4, 1.5399e-07
526.6, 1.5341e-07
526.8, 1.5571e-07
527.0, 1.5805e-07
527.2, 1.6042e-07
527.4, 1.6283e-07
527.6, 1.6528e-07
527.8, 1.6776e-07
528.0, 1.7028e-07
528.2, 1.7284e-07
528.4, 1.7544e-07
528.6, 1.7808e-07
528.8, 1.8075e-07
529.0, 1.8347e-07
529.2, 1.8622e-07
529.4, 1.8902e-07
529.6, 1.9186e-07
529.8, 1.9474e-07
530.0, 1.9767e-07
530.2, 2.0064e-07
530.4, 2.0394e-07
530.6, 2.075e-07
530.8, 2.1111e-07
531.0, 2.1479e-07
531.2, 2.1854e-07
531.4, 2.2235e-07
531.6, 2.2622e-07
531.8, 2.3017e-07
532.0, 2.3418e-07
532.2, 2.3826e-07
532.4, 2.4241e-07
532.6, 2.4664e-07
532.8, 2.5094e-07
533.0, 2.5531e-07
533.2, 2.5976e-07
533.4, 2.6429e-07
533.6, 2.6889e-07
533.8, 2.7358e-07
534.0, 2.7773e-07
534.2, 2.7911e-07
534.4, 2.8049e-07
534.6, 2.8188e-07
534.8, 2.8328e-07
535.0, 2.8468e-07
535.2, 2.8609e-07
535.4, 2.8751e-07
535.6, 2.8894e-07
535.8, 2.9037e-07
536.0, 2.9181e-07
536.2, 2.9325e-07
536.4, 2.9471e-07
536.6, 2.9617e-07
536.8, 2.9764e-07
537.0, 2.9911e-07
537.2, 3.0059e-07
537.4, 3.0208e-07
537.6, 3.0358e-07
537.8, 3.0957e-07
538.0, 3.1699e-07
538.2, 3.2458e-07
538.4, 3.3235e-07
538.6, 3.4031e-07
538.8, 3.4846e-07
539.0, 3.5681e-07
539.2, 3.6535e-07
539.4, 3.741e-07
539.6, 3.8306e-07
539.8, 3.9224e-07
540.0, 4.0163e-07
540.2, 4.1125e-07
540.4, 4.211e-07
540.6, 4.3118e-07
540.8, 4.4151e-07
541.0, 4.5208e-07
541.2, 4.6291e-07
541.4, 4.642e-07
541.6, 4.5054e-07
541.8, 4.3729e-07
542.0, 4.2442e-07
542.2, 4.1193e-07
542.4, 3.9981e-07
542.6, 3.8805e-07
542.8, 3.7663e-07
543.0, 3.6555e-07
543.2, 3.2329e-07
543.4, 2.8591e-07
543.6, 2.5286e-07
543.8, 2.2363e-07
544.0, 1.9778e-07
544.2, 1.7491e-07
544.4, 1.5469e-07
544.6, 1.3887e-07
544.8, 1.3212e-07
545.0, 1.257e-07
545.2, 1.1959e-07
545.4, 1.1378e-07
545.6, 1.0825e-07
545.8, 1.0299e-07
546.0, 9.798e-08
546.2, 9.3217e-08
546.4, 8.8687e-08
546.6, 8.4376e-08
546.8, 8.0275e-08
547.0, 7.6373e-08
547.2, 7.2661e-08
547.4, 6.9201e-08
547.6, 6.6385e-08
547.8, 6.3683e-08
548.0, 6.1092e-08
548.2, 5.8606e-08
548.4, 5.6221e-08
548.6, 5.3933e-08
548.8, 5.1739e-08
549.0, 4.9633e-08
549.2, 4.7614e-08
549.4, 4.5676e-08
549.6, 4.3817e-08
549.8, 4.2034e-08
550.0, 4.0324e-08
550.2, 3.8683e-08
550.4, 3.7109e-08
550.6, 3.5599e-08
550.8, 3.415e-08
551.0, 3.3848e-08
551.2, 3.4534e-08
551.4, 3.5233e-08
551.6, 3.5947e-08
551.8, 3.6676e-08
552.0, 3.7419e-08
552.2, 3.8177e-08
552.4, 3.8951e-08
552.6, 3.974e-08
552.8, 4.0545e-08
553.0, 4.1367e-08
553.2, 4.2205e-08
553.4, 4.306e-08
553.6, 4.3933e-08
553.8, 4.4823e-08
554.0, 4.5731e-08
554.2, 4.6658e-08
554.4, 4.7603e-08
554.6, 4.8568e-08
554.8, 4.9552e-08
555.0, 5.0556e-08
555.2, 5.1581e-08
555.4, 5.2626e-08
555.6, 5.3692e-08
555.8, 5.4703e-08
556.0, 5.2763e-08
556.2, 5.0892e-08
556.4, 4.9087e-08
556.6, 4.7346e-08
556.8, 4.5667e-08
557.0, 4.4047e-08
557.2, 4.2485e-08
557.4, 4.0978e-08
557.6, 3.9524e-08
557.8, 3.8123e-08
558.0, 3.6771e-08
558.2, 3.5466e-08
558.4, 3.4209e-08
558.6, 3.2995e-08
558.8, 3.1825e-08
559.0, 3.0696e-08
559.2, 2.9608e-08
559.4, 2.8557e-08
559.6, 2.7545e-08
559.8, 2.6568e-08
560.0, 2.5625e-08
560.2, 2.4717e-08
560.4, 2.384e-08
560.6, 2.2994e-08
560.8, 2.2894e-08
561.0, 2.3471e-08
561.2, 2.4062e-08
561.4, 2.4669e-08
561.6, 2.5291e-08
561.8, 2.5928e-08
562.0, 2.6582e-08
562.2, 2.7252e-08
562.4, 2.7939e-08
562.6, 2.8643e-08
562.8, 2.9365e-08
563.0, 3.0105e-08
563.2, 3.0864e-08
563.4, 3.1642e-08
563.6, 3.2439e-08
563.8, 3.3257e-08
564.0, 3.4095e-08
564.2, 3.4955e-08
564.4, 3.5836e-08
564.6, 3.6739e-08
564.8, 3.7665e-08
565.0, 3.8615e-08
565.2, 3.9588e-08
565.4, 4.0586e-08
565.6, 4.1558e-08
565.8, 4.0075e-08
566.0, 3.8644e-08
566.2, 3.7265e-08
566.4, 3.5935e-08
566.6, 3.4653e-08
566.8, 3.3416e-08
567.0, 3.2224e-08
567.2, 3.1073e-08
567.4, 2.9965e-08
567.6, 2.8895e-08
567.8, 2.7864e-08
568.0, 2.6869e-08
568.2, 2.5911e-08
568.4, 2.4986e-08
568.6, 2.4094e-08
568.8, 2.3234e-08
569.0, 2.2405e-08
569.2, 2.1605e-08
569.4, 2.0834e-08
569.6, 2.0091e-08
569.8, 1.9374e-08
570.0, 1.8682e-08
570.2, 1.8016e-08
570.4, 1.7373e-08
570.6, 1.7428e-08
570.8, 1.812e-08
571.0, 1.884e-08
571.2, 1.9589e-08
571.4, 2.0367e-08
571.6, 2.1176e-08
571.8, 2.2017e-08
572.0, 2.2892e-08
572.2, 2.3802e-08
572.4, 2.4747e-08
572.6, 2.573e-08
572.8, 2.6753e-08
573.0, 2.7815e-08
573.2, 2.892e-08
573.4, 3.0069e-08
573.6, 3.1264e-08
573.8, 3.2506e-08
574.0, 3.3797e-08
574.2, 3.514e-08
574.4, 3.6536e-08
574.6, 3.7987e-08
574.8, 3.9497e-08
575.0, 4.1066e-08
575.2, 4.2697e-08
575.4, 4.4341e-08
575.6, 4.3447e-08
575.8, 4.2571e-08
576.0, 4.1713e-08
576.2, 4.0872e-08
576.4, 4.0048e-08
576.6, 3.9241e-08
576.8, 3.845e-08
577.0, 3.7675e-08
577.2, 3.6915e-08
577.4, 3.6171e-08
577.6, 3.5442e-08
577.8, 3.4727e-08
578.0, 3.4027e-08
578.2, 3.3341e-08
578.4, 3.2669e-08
578.6, 3.2011e-08
578.8, 3.1365e-08
579.0, 3.0733e-08
579.2, 3.0113e-08
579.4, 2.9506e-08
579.6, 2.8912e-08
579.8, 2.8329e-08
580.0, 2.7758e-08
580.2, 2.7198e-08
580.4, 2.7127e-08
580.6, 2.7521e-08
580.8, 2.792e-08
581.0, 2.8326e-08
581.2, 2.8737e-08
581.4, 2.9155e-08
581.6, 2.9578e-08
581.8, 3.0008e-08
582.0, 3.0443e-08
582.2, 3.0886e-08
582.4, 3.1334e-08
582.6, 3.1789e-08
582.8, 3.2251e-08
583.0, 3.2719e-08
583.2, 3.3194e-08
583.4, 3.3677e-08
583.6, 3.4166e-08
583.8, 3.4662e-08
584.0, 3.5165e-08
584.2, 3.5676e-08
584.4, 3.6194e-08
584.6, 3.672e-08
584.8, 3.7253e-08
585.0, 3.7794e-08
585.2, 3.8328e-08
585.4, 3.8392e-08
585.6, 3.8455e-08
585.8, 3.8519e-08
586.0, 3.8582e-08
586.2, 3.8646e-08
586.4, 3.871e-08
586.6, 3.8774e-08
586.8, 3.8838e-08
587.0, 3.8902e-08
587.2, 3.8967e-08
587.4, 3.9031e-08
587.6, 3.9096e-08
587.8, 3.916e-08
588.0, 3.9225e-08
588.2, 3.929e-08
588.4, 3.9355e-08
588.6, 3.942e-08
588.8, 3.9485e-08
589.0, 3.955e-08
589.2, 3.9616e-08
589.4, 3.9681e-08
589.6, 3.9747e-08
589.8, 3.9813e-08
590.0, 3.9878e-08
590.2, 4.0256e-08
590.4, 4.0902e-08
590.6, 4.1559e-08
590.8, 4.2226e-08
591.0, 4.2903e-08
591.2, 4.3592e-08
591.4, 4.4291e-08
591.6, 4.5002e-08
591.8, 4.5724e-08
592.0, 4.6458e-08
592.2, 4.7204e-08
592.4, 4.7961e-08
592.6, 4.8731e-08
592.8, 4.9513e-08
593.0, 5.0308e-08
593.2, 5.1115e-08
593.4, 5.1935e-08
593.6, 5.2769e-08
593.8, 5.3616e-08
594.0, 5.4476e-08
594.2, 5.535e-08
594.4, 5.6239e-08
594.6, 5.7141e-08
594.8, 5.8058e-08
595.0, 5.8957e-08
595.2, 5.8797e-08
595.4, 5.8637e-08
595.6, 5.8478e-08
595.8, 5.8319e-08
596.0, 5.816e-08
596.2, 5.8002e-08
596.4, 5.7845e-08
596.6, 5.7688e-08
596.8, 5.7531e-08
597.0, 5.7375e-08
597.2, 5.7219e-08
597.4, 5.7063e-08
597.6, 5.6908e-08
597.8, 5.6754e-08
598.0, 5.6599e-08
598.2, 5.6446e-08
598.4, 5.6292e-08
598.6, 5.6139e-08
598.8, 5.6276e-08
599.0, 5.7078e-08
599.2, 5.7891e-08
599.4, 5.8716e-08
599.6, 5.9553e-08
599.8, 6.0401e-08
600.0, 6.1262e-08
600.2, 6.2135e-08
600.4, 6.302e-08
600.6, 6.3918e-08
600.8, 6.4829e-08
601.0, 6.5753e-08
601.2, 6.669e-08
601.4, 6.7641e-08
601.6, 6.8604e-08
601.8, 6.9582e-08
602.0, 7.0574e-08
602.2, 7.1579e-08
602.4, 7.3517e-08
602.6, 7.5798e-08
602.8, 7.815e-08
603.0, 8.0575e-08
603.2, 8.3076e-08
603.4, 8.5654e-08
603.6, 8.8312e-08
603.8, 9.1053e-08
604.0, 9.3878e-08
604.2, 9.6792e-08
604.4, 9.9795e-08
604.6, 1.0267e-07
604.8, 9.1459e-08
605.0, 8.1475e-08
605.2, 7.2581e-08
605.4, 6.4657e-08
605.6, 5.7599e-08
605.8, 5.1311e-08
606.0, 4.571e-08
606.2, 4.9342e-08
606.4, 8.8377e-08
606.6, 1.5829e-07
606.8, 1.6224e-07
607.0, 1.4075e-07
607.2, 1.1783e-07
607.4, 8.9365e-08
607.6, 7.9498e-08
607.8, 7.3507e-08
608.0, 5.7445e-08
608.2, 3.0319e-08
608.4, 1.6002e-08
608.6, 5.0127e-08
608.8, 1.1678e-07
609.0, 4.4735e-08
609.2, 1.7137e-08
609.4, 2.4752e-08
609.6, 5.0877e-08
609.8, 9.1783e-08
610.0, 1.2029e-07
610.2, 7.9702e-08
610.4, 4.3564e-08
610.6, 3.175e-08
610.8, 4.9407e-08
611.0, 7.6882e-08
611.2, 5.9771e-08
611.4, 4.5843e-08
611.6, 6.0177e-08
611.8, 7.8992e-08
612.0, 4.9029e-08
612.2, 2.4021e-08
612.4, 1.9461e-08
612.6, 6.5983e-08
612.8, 6.8303e-08
613.0, 5.1579e-08
613.2, 3.7295e-08
613.4, 2.4183e-08
613.6, 1.5681e-08
613.8, 3.3024e-08
614.0, 7.1423e-08
614.2, 7.0781e-08
614.4, 7.0143e-08
614.6, 7.443e-08
614.8, 8.0562e-08
615.0, 9.0062e-08
615.2, 1.0987e-07
615.4, 1.136e-07
615.6, 1.127e-07
615.8, 1.1388e-07
616.0, 1.2025e-07
616.2, 1.2698e-07
616.4, 8.4078e-08
616.6, 6.5199e-08
616.8, 1.0344e-07
617.0, 1.641e-07
617.2, 2.3412e-07
617.4, 3.2419e-07
617.6, 4.2493e-07
617.8, 4.8197e-07
618.0, 6.1742e-07
618.2, 8.2106e-07
618.4, 1.1285e-06
618.6, 1.7035e-06
618.8, 2.5716e-06
619.0, 3.9412e-06
619.2, 6.1292e-06
619.4, 9.7704e-06
619.6, 1.5575e-05
619.8, 2.5726e-05
620.0, 4.2908e-05
620.2, 8.1614e-05
620.4, 1.5557e-04
620.6, 2.787e-04
620.8, 4.7897e-04
621.0, 8.9054e-04
621.2, 0.00176
621.4, 0.00381
621.6, 0.00976
621.8, 0.02382
622.0, 0.06319
622.2, 0.16463
622.4, 0.34183
622.6, 0.49237
622.8, 0.5597
623.0, 0.59706
623.2, 0.65418
623.4, 0.72592
623.6, 0.79725
623.8, 0.8523
624.0, 0.88806
624.2, 0.90954
624.4, 0.92388
624.6, 0.93564
624.8, 0.94739
625.0, 0.95868
625.2, 0.96847
625.4, 0.97543
625.6, 0.97987
625.8, 0.98272
626.0, 0.9846
626.2, 0.98612
626.4, 0.98789
626.6, 0.98995
626.8, 0.99105
627.0, 0.99179
627.2, 0.99105
627.4, 0.98959
627.6, 0.98772
627.8, 0.98538
628.0, 0.98397
628.2, 0.98321
628.4, 0.98364
628.6, 0.98483
628.8, 0.98699
629.0, 0.98962
629.2, 0.99153
629.4, 0.99352
629.6, 0.99393
629.8, 0.99413
630.0, 0.9936
630.2, 0.99218
630.4, 0.99096
630.6, 0.98962
630.8, 0.98878
631.0, 0.9886
631.2, 0.98845
631.4, 0.98927
631.6, 0.98996
631.8, 0.99078
632.0, 0.99151
632.2, 0.99246
632.4, 0.99225
632.6, 0.99205
632.8, 0.99112
633.0, 0.98998
633.2, 0.98926
633.4, 0.98839
633.6, 0.98713
633.8, 0.98655
634.0, 0.98603
634.2, 0.98595
634.4, 0.98555
634.6, 0.98527
634.8, 0.9853
635.0, 0.98522
635.2, 0.98413
635.4, 0.98368
635.6, 0.98421
635.8, 0.98429
636.0, 0.98393
636.2, 0.98441
636.4, 0.98483
636.6, 0.98632
636.8, 0.98751
637.0, 0.98834
637.2, 0.98941
637.4, 0.98998
637.6, 0.99001
637.8, 0.98991
638.0, 0.98939
638.2, 0.98861
638.4, 0.98766
638.6, 0.98703
638.8, 0.98586
639.0, 0.98572
639.2, 0.98552
639.4, 0.98529
639.6, 0.9853
639.8, 0.98437
640.0, 0.98356
640.2, 0.98197
640.4, 0.97979
640.6, 0.97711
640.8, 0.97485
641.0, 0.97191
641.2, 0.96958
641.4, 0.96785
641.6, 0.96784
641.8, 0.96929
642.0, 0.97067
642.2, 0.97322
642.4, 0.97569
642.6, 0.97851
642.8, 0.98126
643.0, 0.98278
643.2, 0.98355
643.4, 0.98367
643.6, 0.98315
643.8, 0.9802
644.0, 0.97456
644.2, 0.9643
644.4, 0.94905
644.6, 0.92731
644.8, 0.90011
645.0, 0.86853
645.2, 0.83695
645.4, 0.80815
645.6, 0.78444
645.8, 0.76508
646.0, 0.74384
646.2, 0.71131
646.4, 0.65725
646.6, 0.58361
646.8, 0.50425
647.0, 0.43936
647.2, 0.40571
647.4, 0.39733
647.6, 0.4054
647.8, 0.30321
648.0, 0.1332
648.2, 0.0423
648.4, 0.01447
648.6, 0.00504
648.8, 0.00168
649.0, 7.465e-04
649.2, 3.5542e-04
649.4, 1.8019e-04
649.6, 9.4164e-05
649.8, 5.0604e-05
650.0, 2.6732e-05
650.2, 1.5559e-05
650.4, 9.7159e-06
650.6, 6.1153e-06
650.8, 3.9223e-06
651.0, 2.5158e-06
651.2, 1.4033e-06
651.4, 7.9962e-07
651.6, 5.2649e-07
651.8, 3.4666e-07
652.0, 2.4086e-07
652.2, 1.6983e-07
652.4, 1.1634e-07
652.6, 7.4137e-08
652.8, 4.0143e-08
653.0, 2.0704e-08
653.2, 1.2823e-08
653.4, 1.3026e-08
653.6, 1.3231e-08
653.8, 1.3329e-08
654.0, 1.3323e-08
654.2, 1.3114e-08
654.4, 1.2909e-08
654.6, 2.0015e-08
654.8, 3.5681e-08
655.0, 4.2305e-08
655.2, 1.6649e-08
655.4, 2.613e-08
655.6, 5.8585e-08
655.8, 8.1435e-08
656.0, 3.611e-08
656.2, 1.6012e-08
656.4, 1.3666e-08
656.6, 1.3628e-08
656.8, 1.3299e-08
657.0, 1.2977e-08
657.2, 1.3156e-08
657.4, 1.3482e-08
657.6, 2.0302e-08
657.8, 8.0286e-08
658.0, 1.0824e-07
658.2, 1.0485e-07
658.4, 1.0154e-07
658.6, 9.8239e-08
658.8, 9.5051e-08
659.0, 3.5122e-08
659.2, 1.35e-08
659.4, 1.3173e-08
659.6, 1.2854e-08
659.8, 2.437e-08
660.0, 5.6986e-08
660.2, 7.4239e-08
660.4, 1.8299e-08
660.6, 1.6439e-08
660.8, 2.1269e-08
661.0, 3.1245e-08
661.2, 6.3633e-08
661.4, 1.2959e-07
661.6, 2.3895e-08
661.8, 2.3083e-08
662.0, 4.6306e-08
662.2, 6.3875e-08
662.4, 3.1181e-08
662.6, 1.5221e-08
662.8, 1.6135e-08
663.0, 2.1563e-08
663.2, 2.8816e-08
663.4, 3.851e-08
663.6, 5.1463e-08
663.8, 6.8775e-08
664.0, 9.1909e-08
664.2, 1.2263e-07
664.4, 1.1964e-07
664.6, 1.1672e-07
664.8, 1.1388e-07
665.0, 1.111e-07
665.2, 1.0839e-07
665.4, 1.0574e-07
665.6, 1.0316e-07
665.8, 1.0065e-07
666.0, 9.8193e-08
666.2, 9.5797e-08
666.4, 9.346e-08
666.6, 9.1181e-08
666.8, 8.8956e-08
667.0, 8.6786e-08
667.2, 8.4669e-08
667.4, 8.2604e-08
667.6, 8.0589e-08
667.8, 7.938e-08
668.0, 7.8829e-08
668.2, 7.8282e-08
668.4, 7.7739e-08
668.6, 7.7199e-08
668.8, 7.6664e-08
669.0, 7.6132e-08
669.2, 7.5604e-08
669.4, 7.5079e-08
669.6, 7.4558e-08
669.8, 7.4041e-08
670.0, 7.3527e-08
670.2, 7.3017e-08
670.4, 7.251e-08
670.6, 7.2007e-08
670.8, 7.1508e-08
671.0, 7.1012e-08
671.2, 7.0519e-08
671.4, 7.003e-08
671.6, 6.9544e-08
671.8, 6.9061e-08
672.0, 6.8582e-08
672.2, 6.8106e-08
672.4, 6.7634e-08
672.6, 6.7137e-08
672.8, 6.5759e-08
673.0, 6.4409e-08
673.2, 6.3087e-08
673.4, 6.1792e-08
673.6, 6.0523e-08
673.8, 5.9281e-08
674.0, 5.8064e-08
674.2, 5.6872e-08
674.4, 5.5705e-08
674.6, 5.4561e-08
674.8, 5.3441e-08
675.0, 5.2344e-08
675.2, 5.127e-08
675.4, 5.0217e-08
675.6, 4.9186e-08
675.8, 4.8177e-08
676.0, 4.7188e-08
676.2, 4.6219e-08
676.4, 4.527e-08
676.6, 4.4341e-08
676.8, 4.3431e-08
677.0, 4.2539e-08
677.2, 4.1666e-08
677.4, 4.0811e-08
677.6, 3.979e-08
677.8, 3.8635e-08
678.0, 3.7514e-08
678.2, 3.6425e-08
678.4, 3.5367e-08
678.6, 3.4341e-08
678.8, 3.3344e-08
679.0, 3.2376e-08
679.2, 3.1436e-08
679.4, 3.0524e-08
679.6, 2.9637e-08
679.8, 2.8777e-08
680.0, 2.7942e-08
680.2, 2.7131e-08
680.4, 2.6343e-08
680.6, 2.5578e-08
680.8, 2.4836e-08
681.0, 2.4115e-08
681.2, 2.3415e-08
681.4, 2.2735e-08
681.6, 2.2075e-08
681.8, 2.1434e-08
682.0, 2.0812e-08
682.2, 2.0208e-08
682.4, 1.9634e-08
682.6, 1.9906e-08
682.8, 2.0182e-08
683.0, 2.0461e-08
683.2, 2.0745e-08
683.4, 2.1032e-08
683.6, 2.1323e-08
683.8, 2.1619e-08
684.0, 2.1918e-08
684.2, 2.2222e-08
684.4, 2.2529e-08
684.6, 2.2841e-08
684.8, 2.3158e-08
685.0, 2.3478e-08
685.2, 2.3804e-08
685.4, 2.4133e-08
685.6, 2.4468e-08
685.8, 2.4806e-08
686.0, 2.515e-08
686.2, 2.5498e-08
686.4, 2.5851e-08
686.6, 2.621e-08
686.8, 2.6573e-08
687.0, 2.6941e-08
687.2, 2.7314e-08
687.4, 2.7105e-08
687.6, 2.6349e-08
687.8, 2.5615e-08
688.0, 2.4901e-08
688.2, 2.4207e-08
688.4, 2.3532e-08
688.6, 2.2876e-08
688.8, 2.2238e-08
689.0, 2.1618e-08
689.2, 2.1016e-08
689.4, 2.043e-08
689.6, 1.986e-08
689.8, 1.9307e-08
690.0, 1.8769e-08
690.2, 1.8245e-08
690.4, 1.7737e-08
690.6, 1.7242e-08
690.8, 1.6762e-08
691.0, 1.6295e-08
691.2, 1.584e-08
691.4, 1.5399e-08
691.6, 1.4969e-08
691.8, 1.4552e-08
692.0, 1.4147e-08
692.2, 1.3756e-08
692.4, 1.3587e-08
692.6, 1.342e-08
692.8, 1.3255e-08
693.0, 1.3092e-08
693.2, 1.2932e-08
693.4, 1.2773e-08
693.6, 1.2616e-08
693.8, 1.2461e-08
694.0, 1.2308e-08
694.2, 1.2157e-08
694.4, 1.2008e-08
694.6, 1.186e-08
694.8, 1.1715e-08
695.0, 1.1571e-08
695.2, 1.1429e-08
695.4, 1.1288e-08
695.6, 1.115e-08
695.8, 1.1013e-08
696.0, 1.0878e-08
696.2, 1.0744e-08
696.4, 1.0612e-08
696.6, 1.0482e-08
696.8, 1.0353e-08
697.0, 1.0226e-08
697.2, 1.0406e-08
697.4, 1.0884e-08
697.6, 1.1383e-08
697.8, 1.1906e-08
698.0, 1.2453e-08
698.2, 1.3025e-08
698.4, 1.3623e-08
698.6, 1.4248e-08
698.8, 1.4903e-08
699.0, 1.5587e-08
699.2, 1.6303e-08
699.4, 1.7052e-08
699.6, 1.7835e-08
699.8, 1.8654e-08
700.0, 1.951e-08
700.2, 2.0406e-08
700.4, 2.1344e-08
700.6, 2.2324e-08
700.8, 2.3349e-08
701.0, 2.4421e-08
701.2, 2.5543e-08
701.4, 2.6716e-08
701.6, 2.7942e-08
701.8, 2.9226e-08
702.0, 3.054e-08
702.2, 3.053e-08
702.4, 3.0519e-08
702.6, 3.0509e-08
702.8, 3.0499e-08
703.0, 3.0488e-08
703.2, 3.0478e-08
703.4, 3.0468e-08
703.6, 3.0457e-08
703.8, 3.0447e-08
704.0, 3.0437e-08
704.2, 3.0426e-08
704.4, 3.0416e-08
704.6, 3.0406e-08
704.8, 3.0395e-08
705.0, 3.0385e-08
705.2, 3.0375e-08
705.4, 3.0365e-08
705.6, 3.0354e-08
705.8, 3.0344e-08
706.0, 3.0334e-08
706.2, 3.0323e-08
706.4, 3.0313e-08
706.6, 3.0303e-08
706.8, 3.0293e-08
707.0, 3.0009e-08
707.2, 2.9479e-08
707.4, 2.8959e-08
707.6, 2.8449e-08
707.8, 2.7947e-08
708.0, 2.7454e-08
708.2, 2.6969e-08
708.4, 2.6494e-08
708.6, 2.6026e-08
708.8, 2.5567e-08
709.0, 2.5116e-08
709.2, 2.4673e-08
709.4, 2.4238e-08
709.6, 2.3811e-08
709.8, 2.3391e-08
710.0, 2.2978e-08
710.2, 2.2573e-08
710.4, 2.2175e-08
710.6, 2.1783e-08
710.8, 2.1399e-08
711.0, 2.1022e-08
711.2, 2.0651e-08
711.4, 2.0287e-08
711.6, 1.9929e-08
711.8, 1.9603e-08
712.0, 2.0997e-08
712.2, 2.2491e-08
712.4, 2.4092e-08
712.6, 2.5806e-08
712.8, 2.7642e-08
713.0, 2.9609e-08
713.2, 3.1715e-08
713.4, 3.3972e-08
713.6, 3.6389e-08
713.8, 3.8978e-08
714.0, 4.1752e-08
714.2, 4.4722e-08
714.4, 4.7904e-08
714.6, 5.1313e-08
714.8, 5.4964e-08
715.0, 5.8874e-08
715.2, 6.3063e-08
715.4, 6.7551e-08
715.6, 7.2357e-08
715.8, 7.7505e-08
716.0, 8.302e-08
716.2, 8.8927e-08
716.4, 9.5254e-08
716.6, 9.8196e-08
716.8, 8.8373e-08
717.0, 7.9533e-08
717.2, 7.1577e-08
717.4, 6.4417e-08
717.6, 5.7973e-08
717.8, 5.2174e-08
718.0, 4.6954e-08
718.2, 4.2257e-08
718.4, 3.803e-08
718.6, 3.4226e-08
718.8, 3.0802e-08
719.0, 2.7721e-08
719.2, 2.4948e-08
719.4, 2.2452e-08
719.6, 2.0206e-08
719.8, 1.8185e-08
720.0, 1.6366e-08
720.2, 1.58e-08
720.4, 1.55e-08
720.6, 1.5205e-08
720.8, 1.4916e-08
721.0, 1.4632e-08
721.2, 1.4354e-08
721.4, 1.4081e-08
721.6, 1.3813e-08
721.8, 1.3551e-08
722.0, 1.3293e-08
722.2, 1.304e-08
722.4, 1.2792e-08
722.6, 1.2549e-08
722.8, 1.231e-08
723.0, 1.2076e-08
723.2, 1.1847e-08
723.4, 1.1873e-08
723.6, 1.3924e-08
723.8, 1.6329e-08
724.0, 1.915e-08
724.2, 2.2458e-08
724.4, 2.6338e-08
724.6, 3.0888e-08
724.8, 3.6224e-08
725.0, 4.2481e-08
725.2, 4.982e-08
725.4, 5.8426e-08
725.6, 6.8519e-08
725.8, 8.0356e-08
726.0, 9.2243e-08
726.2, 9.9472e-08
726.4, 1.0727e-07
726.6, 1.1568e-07
726.8, 1.2474e-07
727.0, 1.3452e-07
727.2, 1.4506e-07
727.4, 1.5643e-07
727.6, 1.6869e-07
727.8, 1.7903e-07
728.0, 1.7469e-07
728.2, 1.7045e-07
728.4, 1.6631e-07
728.6, 1.6228e-07
728.8, 1.5834e-07
729.0, 1.545e-07
729.2, 1.5075e-07
729.4, 1.471e-07
729.6, 1.436e-07
729.8, 1.4105e-07
730.0, 1.3855e-07
730.2, 1.361e-07
730.4, 1.3369e-07
730.6, 1.3132e-07
730.8, 1.29e-07
731.0, 1.2671e-07
731.2, 1.2447e-07
731.4, 1.2226e-07
731.6, 1.2385e-07
731.8, 1.2555e-07
732.0, 1.2726e-07
732.2, 1.29e-07
732.4, 1.3076e-07
732.6, 1.3255e-07
732.8, 1.3436e-07
733.0, 1.362e-07
733.2, 1.3806e-07
733.4, 1.3885e-07
733.6, 1.3951e-07
733.8, 1.4018e-07
734.0, 1.4085e-07
734.2, 1.4152e-07
734.4, 1.422e-07
734.6, 1.4288e-07
734.8, 1.4356e-07
735.0, 1.4425e-07
735.2, 1.4563e-07
735.4, 1.472e-07
735.6, 1.4878e-07
735.8, 1.5038e-07
736.0, 1.52e-07
736.2, 1.5363e-07
736.4, 1.5528e-07
736.6, 1.5695e-07
736.8, 1.5864e-07
737.0, 1.4996e-07
737.2, 1.382e-07
737.4, 1.2736e-07
737.6, 1.1737e-07
737.8, 1.0816e-07
738.0, 9.9678e-08
738.2, 8.7551e-08
738.4, 7.69e-08
738.6, 6.7545e-08
738.8, 5.9327e-08
739.0, 5.211e-08
739.2, 5.1405e-08
739.4, 5.1888e-08
739.6, 5.2374e-08
739.8, 5.2865e-08
740.0, 5.3361e-08
740.2, 5.3862e-08
740.4, 5.4367e-08
740.6, 5.4877e-08
740.8, 5.5391e-08
741.0, 5.5911e-08
741.2, 5.6435e-08
741.4, 5.6965e-08
741.6, 5.7499e-08
741.8, 5.8038e-08
742.0, 5.8583e-08
742.2, 5.9132e-08
742.4, 5.9687e-08
742.6, 6.0246e-08
742.8, 5.829e-08
743.0, 5.4693e-08
743.2, 5.1318e-08
743.4, 4.8152e-08
743.6, 4.5181e-08
743.8, 4.2393e-08
744.0, 3.9777e-08
744.2, 3.7323e-08
744.4, 3.502e-08
744.6, 3.2859e-08
744.8, 3.0832e-08
745.0, 2.8929e-08
745.2, 2.7144e-08
745.4, 2.547e-08
745.6, 2.3898e-08
745.8, 2.2423e-08
746.0, 2.104e-08
746.2, 1.9742e-08
746.4, 1.9156e-08
746.6, 1.987e-08
746.8, 2.061e-08
747.0, 2.1378e-08
747.2, 2.2174e-08
747.4, 2.3e-08
747.6, 2.3857e-08
747.8, 2.4746e-08
748.0, 2.5668e-08
748.2, 2.6624e-08
748.4, 2.7616e-08
748.6, 2.8645e-08
748.8, 2.9712e-08
749.0, 3.0819e-08
749.2, 3.1967e-08
749.4, 3.3158e-08
749.6, 3.4393e-08
749.8, 3.5674e-08
750.0, 3.6874e-08
750.2, 3.6993e-08
750.4, 3.7113e-08
750.6, 3.7233e-08
750.8, 3.7354e-08
751.0, 3.7475e-08
751.2, 3.7596e-08
751.4, 3.7718e-08
751.6, 3.784e-08
751.8, 3.7962e-08
752.0, 3.8085e-08
752.2, 3.8208e-08
752.4, 3.8332e-08
752.6, 3.8456e-08
752.8, 3.8581e-08
753.0, 3.8706e-08
753.2, 3.8831e-08
753.4, 3.8957e-08
753.6, 3.9083e-08
753.8, 3.7609e-08
754.0, 3.5986e-08
754.2, 3.4433e-08
754.4, 3.2947e-08
754.6, 3.1525e-08
754.8, 3.0165e-08
755.0, 2.8863e-08
755.2, 2.7618e-08
755.4, 2.6426e-08
755.6, 2.5285e-08
755.8, 2.4194e-08
756.0, 2.315e-08
756.2, 2.2151e-08
756.4, 2.1195e-08
756.6, 2.028e-08
756.8, 1.9405e-08
757.0, 1.8568e-08
757.2, 1.7766e-08
757.4, 1.7446e-08
757.6, 1.7352e-08
757.8, 1.7259e-08
758.0, 1.7166e-08
758.2, 1.7073e-08
758.4, 1.6981e-08
758.6, 1.689e-08
758.8, 1.6799e-08
759.0, 1.6708e-08
759.2, 1.6618e-08
759.4, 1.6529e-08
759.6, 1.644e-08
759.8, 1.6351e-08
760.0, 1.6263e-08
760.2, 1.6175e-08
760.4, 1.6088e-08
760.6, 1.6002e-08
760.8, 1.5915e-08
761.0, 1.6636e-08
761.2, 1.8413e-08
761.4, 2.0379e-08
761.6, 2.2556e-08
761.8, 2.4965e-08
762.0, 2.7631e-08
762.2, 3.0582e-08
762.4, 3.3848e-08
762.6, 3.7463e-08
762.8, 4.1464e-08
763.0, 4.5892e-08
763.2, 5.0793e-08
763.4, 5.6218e-08
763.6, 6.2222e-08
763.8, 6.8867e-08
764.0, 7.6222e-08
764.2, 8.4362e-08
764.4, 9.3372e-08
764.6, 1.005e-07
764.8, 1.005e-07
765.0, 1.005e-07
765.2, 1.005e-07
765.4, 1.005e-07
765.6, 1.005e-07
765.8, 1.005e-07
766.0, 1.005e-07
766.2, 1.005e-07
766.4, 1.005e-07
766.6, 1.005e-07
766.8, 1.005e-07
767.0, 1.005e-07
767.2, 1.005e-07
767.4, 1.005e-07
767.6, 1.005e-07
767.8, 1.005e-07
768.0, 1.005e-07
768.2, 9.9798e-08
768.4, 9.2703e-08
768.6, 8.6112e-08
768.8, 7.999e-08
769.0, 7.4303e-08
769.2, 6.902e-08
769.4, 6.4113e-08
769.6, 5.9555e-08
769.8, 5.5321e-08
770.0, 5.1388e-08
770.2, 4.7734e-08
770.4, 4.4341e-08
770.6, 4.1188e-08
770.8, 3.826e-08
771.0, 3.554e-08
771.2, 3.3013e-08
771.4, 3.0666e-08
771.6, 2.8486e-08
771.8, 2.6461e-08
772.0, 2.8153e-08
772.2, 3.031e-08
772.4, 3.2632e-08
772.6, 3.5131e-08
772.8, 3.7822e-08
773.0, 4.072e-08
773.2, 4.3839e-08
773.4, 4.7197e-08
773.6, 5.0813e-08
773.8, 5.4705e-08
774.0, 5.8896e-08
774.2, 6.3407e-08
774.4, 6.8264e-08
774.6, 7.3494e-08
774.8, 7.9124e-08
775.0, 8.5185e-08
775.2, 9.171e-08
775.4, 9.8735e-08
775.6, 1.005e-07
775.8, 1.005e-07
776.0, 1.005e-07
776.2, 1.005e-07
776.4, 1.005e-07
776.6, 1.005e-07
776.8, 1.005e-07
777.0, 1.005e-07
777.2, 1.005e-07
777.4, 1.005e-07
777.6, 1.005e-07
777.8, 1.005e-07
778.0, 1.005e-07
778.2, 1.005e-07
778.4, 1.005e-07
778.6, 1.005e-07
778.8, 1.005e-07
779.0, 1.005e-07
779.2, 1.005e-07
779.4, 1.005e-07
779.6, 1.005e-07
779.8, 1.005e-07
780.0, 1.005e-07
780.2, 1.005e-07
780.4, 1.005e-07
780.6, 1.005e-07
780.8, 1.005e-07
781.0, 1.005e-07
781.2, 1.005e-07
781.4, 1.005e-07
781.6, 1.005e-07
781.8, 1.005e-07
782.0, 1.005e-07
782.2, 1.005e-07
782.4, 1.005e-07
782.6, 1.005e-07
782.8, 1.005e-07
783.0, 1.005e-07
783.2, 1.005e-07
783.4, 1.005e-07
783.6, 1.005e-07
783.8, 1.005e-07
784.0, 1.005e-07
784.2, 1.005e-07
784.4, 1.005e-07
784.6, 1.005e-07
784.8, 1.005e-07
785.0, 1.005e-07
785.2, 1.005e-07
785.4, 1.005e-07
785.6, 1.005e-07
785.8, 1.005e-07
786.0, 1.005e-07
786.2, 1.005e-07
786.4, 1.005e-07
786.6, 1.005e-07
786.8, 1.005e-07
787.0, 1.005e-07
787.2, 1.005e-07
787.4, 1.005e-07
787.6, 1.005e-07
787.8, 1.005e-07
788.0, 1.005e-07
788.2, 1.005e-07
788.4, 1.005e-07
788.6, 1.005e-07
788.8, 1.005e-07
789.0, 1.005e-07
789.2, 1.005e-07
789.4, 1.005e-07
789.6, 1.005e-07
789.8, 1.005e-07
790.0, 9.8479e-08
790.2, 8.9397e-08
790.4, 8.1153e-08
790.6, 7.367e-08
790.8, 6.6876e-08
791.0, 6.0709e-08
791.2, 5.5111e-08
791.4, 5.0029e-08
791.6, 4.5415e-08
791.8, 4.1227e-08
792.0, 3.7425e-08
792.2, 3.3974e-08
792.4, 3.0841e-08
792.6, 2.7997e-08
792.8, 2.5415e-08
793.0, 2.3072e-08
793.2, 2.0944e-08
793.4, 1.9013e-08
793.6, 1.7538e-08
793.8, 1.8682e-08
794.0, 1.9901e-08
794.2, 2.1199e-08
794.4, 2.2582e-08
794.6, 2.4056e-08
794.8, 2.5625e-08
795.0, 2.7297e-08
795.2, 2.7005e-08
795.4, 2.6716e-08
795.6, 2.643e-08
795.8, 2.6147e-08
796.0, 2.5867e-08
796.2, 2.559e-08
796.4, 2.5316e-08
796.6, 2.5045e-08
796.8, 2.4777e-08
797.0, 2.4512e-08
797.2, 2.4328e-08
797.4, 2.5053e-08
797.6, 2.5799e-08
797.8, 2.6568e-08
798.0, 2.736e-08
798.2, 2.8175e-08
798.4, 2.9015e-08
798.6, 2.988e-08
798.8, 3.077e-08
799.0, 3.1687e-08
799.2, 3.2631e-08
799.4, 3.3604e-08
799.6, 3.4605e-08
799.8, 3.5636e-08
800.0, 3.6698e-08
800.2, 3.7792e-08
800.4, 3.8918e-08
800.6, 4.0078e-08
800.8, 4.1272e-08
801.0, 4.1122e-08
801.2, 4.0959e-08
801.4, 4.0796e-08
801.6, 4.0634e-08
801.8, 4.0473e-08
802.0, 4.0312e-08
802.2, 4.0152e-08
802.4, 3.9993e-08
802.6, 3.9834e-08
802.8, 3.9676e-08
803.0, 3.9518e-08
803.2, 3.902e-08
803.4, 3.8528e-08
803.6, 3.8042e-08
803.8, 3.7562e-08
804.0, 3.7089e-08
804.2, 3.6567e-08
804.4, 3.5604e-08
804.6, 3.4666e-08
804.8, 3.3753e-08
805.0, 3.2864e-08
805.2, 3.1998e-08
805.4, 3.1155e-08
805.6, 3.0335e-08
805.8, 2.9536e-08
806.0, 2.8758e-08
806.2, 2.8e-08
806.4, 2.7263e-08
806.6, 2.6545e-08
806.8, 2.5845e-08
807.0, 2.5165e-08
807.2, 2.4502e-08
807.4, 2.3856e-08
807.6, 2.3228e-08
807.8, 2.2616e-08
808.0, 2.288e-08
808.2, 2.3199e-08
808.4, 2.3522e-08
808.6, 2.385e-08
808.8, 2.4182e-08
809.0, 2.4519e-08
809.2, 2.4861e-08
809.4, 2.5207e-08
809.6, 2.5558e-08
809.8, 2.5914e-08
810.0, 2.6275e-08
810.2, 2.6641e-08
810.4, 2.7013e-08
810.6, 2.7389e-08
810.8, 2.7771e-08
811.0, 2.8158e-08
811.2, 2.855e-08
811.4, 2.8948e-08
811.6, 3.0654e-08
811.8, 3.2826e-08
812.0, 3.5151e-08
812.2, 3.7642e-08
812.4, 4.0309e-08
812.6, 4.3165e-08
812.8, 4.6224e-08
813.0, 4.9499e-08
813.2, 5.3007e-08
813.4, 5.6762e-08
813.6, 6.0784e-08
813.8, 6.5091e-08
814.0, 6.9703e-08
814.2, 7.4642e-08
814.4, 7.9931e-08
814.6, 8.5595e-08
814.8, 9.166e-08
815.0, 9.8154e-08
815.2, 1.005e-07
815.4, 1.005e-07
815.6, 1.005e-07
815.8, 1.005e-07
816.0, 1.005e-07
816.2, 1.005e-07
816.4, 1.005e-07
816.6, 1.005e-07
816.8, 1.005e-07
817.0, 1.005e-07
817.2, 1.005e-07
817.4, 1.005e-07
817.6, 1.005e-07
817.8, 1.005e-07
818.0, 1.005e-07
818.2, 1.005e-07
818.4, 1.005e-07
818.6, 1.005e-07
818.8, 1.005e-07
819.0, 1.005e-07
819.2, 1.005e-07
819.4, 1.005e-07
819.6, 1.005e-07
819.8, 1.005e-07
820.0, 1.005e-07
820.2, 1.005e-07
820.4, 1.005e-07
820.6, 1.005e-07
820.8, 1.005e-07
821.0, 1.005e-07
821.2, 1.005e-07
821.4, 1.005e-07
821.6, 1.005e-07
821.8, 1.005e-07
822.0, 1.005e-07
822.2, 1.005e-07
822.4, 9.5797e-08
822.6, 8.4979e-08
822.8, 7.5383e-08
823.0, 6.6871e-08
823.2, 5.932e-08
823.4, 5.2621e-08
823.6, 4.6679e-08
823.8, 4.1408e-08
824.0, 3.6732e-08
824.2, 3.2585e-08
824.4, 2.8905e-08
824.6, 2.5641e-08
824.8, 2.2746e-08
825.0, 2.0177e-08
825.2, 1.7899e-08
825.4, 1.5878e-08
825.6, 1.4085e-08
825.8, 1.2494e-08
826.0, 1.1881e-08
826.2, 1.3394e-08
826.4, 1.5099e-08
826.6, 1.7022e-08
826.8, 1.919e-08
827.0, 2.1633e-08
827.2, 2.4388e-08
827.4, 2.7493e-08
827.6, 3.0994e-08
827.8, 3.494e-08
828.0, 3.9389e-08
828.2, 4.4405e-08
828.4, 5.0059e-08
828.6, 5.6433e-08
828.8, 6.3619e-08
829.0, 7.172e-08
829.2, 8.0852e-08
829.4, 9.1147e-08
829.6, 9.8982e-08
829.8, 9.1165e-08
830.0, 8.3965e-08
830.2, 7.7333e-08
830.4, 7.1226e-08
830.6, 6.56e-08
830.8, 6.0419e-08
831.0, 5.5647e-08
831.2, 5.1253e-08
831.4, 4.7205e-08
831.6, 4.3477e-08
831.8, 4.0043e-08
832.0, 3.688e-08
832.2, 3.3968e-08
832.4, 3.1285e-08
832.6, 2.8814e-08
832.8, 2.6538e-08
833.0, 2.4442e-08
833.2, 2.2619e-08
833.4, 2.1962e-08
833.6, 2.1324e-08
833.8, 2.0704e-08
834.0, 2.0103e-08
834.2, 1.9519e-08
834.4, 1.8951e-08
834.6, 1.8401e-08
834.8, 1.7866e-08
835.0, 1.7347e-08
835.2, 1.6843e-08
835.4, 1.6354e-08
835.6, 1.5879e-08
835.8, 1.5417e-08
836.0, 1.4969e-08
836.2, 1.4534e-08
836.4, 1.4112e-08
836.6, 1.3702e-08
836.8, 1.331e-08
837.0, 1.417e-08
837.2, 1.5086e-08
837.4, 1.6061e-08
837.6, 1.71e-08
837.8, 1.8205e-08
838.0, 1.9382e-08
838.2, 2.0635e-08
838.4, 2.1969e-08
838.6, 2.3389e-08
838.8, 2.4901e-08
839.0, 2.651e-08
839.2, 2.8224e-08
839.4, 3.0048e-08
839.6, 3.1991e-08
839.8, 3.4059e-08
840.0, 3.626e-08
840.2, 3.8604e-08
840.4, 4.1099e-08
840.6, 4.1534e-08
840.8, 4.1809e-08
841.0, 4.2086e-08
841.2, 4.2365e-08
841.4, 4.2645e-08
841.6, 4.2927e-08
841.8, 4.3212e-08
842.0, 4.3498e-08
842.2, 4.3786e-08
842.4, 4.4076e-08
842.6, 4.4367e-08
842.8, 4.4661e-08
843.0, 4.4957e-08
843.2, 4.5255e-08
843.4, 4.5554e-08
843.6, 4.5856e-08
843.8, 4.6159e-08
844.0, 4.6465e-08
844.2, 4.6484e-08
844.4, 4.6459e-08
844.6, 4.6434e-08
844.8, 4.6408e-08
845.0, 4.6383e-08
845.2, 4.6358e-08
845.4, 4.6332e-08
845.6, 4.6307e-08
845.8, 4.6282e-08
846.0, 4.6257e-08
846.2, 4.6231e-08
846.4, 4.6206e-08
846.6, 4.6181e-08
846.8, 4.6156e-08
847.0, 4.613e-08
847.2, 4.6105e-08
847.4, 4.608e-08
847.6, 4.6055e-08
847.8, 4.7052e-08
848.0, 4.832e-08
848.2, 4.9622e-08
848.4, 5.0958e-08
848.6, 5.2331e-08
848.8, 5.3741e-08
849.0, 5.5189e-08
849.2, 5.6675e-08
849.4, 5.8202e-08
849.6, 5.977e-08
849.8, 6.138e-08
850.0, 6.3034e-08
850.2, 6.4732e-08
850.4, 6.6476e-08
850.6, 6.8267e-08
850.8, 7.0106e-08
851.0, 7.1994e-08
851.2, 7.3934e-08
851.4, 7.4345e-08
851.6, 7.4277e-08
851.8, 7.4208e-08
852.0, 7.414e-08
852.2, 7.4072e-08
852.4, 7.4005e-08
852.6, 7.3937e-08
852.8, 7.3869e-08
853.0, 7.3801e-08
853.2, 7.3733e-08
853.4, 7.3666e-08
853.6, 7.3598e-08
853.8, 7.3531e-08
854.0, 7.3463e-08
854.2, 7.3396e-08
854.4, 7.3329e-08
854.6, 7.3261e-08
854.8, 7.3194e-08
855.0, 7.0855e-08
855.2, 6.7796e-08
855.4, 6.4868e-08
855.6, 6.2067e-08
855.8, 5.9386e-08
856.0, 5.6822e-08
856.2, 5.4368e-08
856.4, 5.202e-08
856.6, 4.9773e-08
856.8, 4.7624e-08
857.0, 4.5567e-08
857.2, 4.3599e-08
857.4, 4.1717e-08
857.6, 3.9915e-08
857.8, 3.8191e-08
858.0, 3.6542e-08
858.2, 3.4964e-08
858.4, 3.3454e-08
858.6, 3.3672e-08
858.8, 3.4634e-08
859.0, 3.5624e-08
859.2, 3.6642e-08
859.4, 3.7689e-08
859.6, 3.8766e-08
859.8, 3.9874e-08
860.0, 4.1013e-08
860.2, 4.2186e-08
860.4, 4.3391e-08
860.6, 4.4631e-08
860.8, 4.5907e-08
861.0, 4.7219e-08
861.2, 4.8568e-08
861.4, 4.9956e-08
861.6, 5.1384e-08
861.8, 5.2852e-08
862.0, 5.4363e-08
862.2, 5.4264e-08
862.4, 5.3424e-08
862.6, 5.2596e-08
862.8, 5.1781e-08
863.0, 5.0979e-08
863.2, 5.019e-08
863.4, 4.9413e-08
863.6, 4.8647e-08
863.8, 4.7894e-08
864.0, 4.7152e-08
864.2, 4.6422e-08
864.4, 4.5703e-08
864.6, 4.4995e-08
864.8, 4.4298e-08
865.0, 4.3612e-08
865.2, 4.2936e-08
865.4, 4.2271e-08
865.6, 4.1617e-08
865.8, 3.8697e-08
866.0, 3.5006e-08
866.2, 3.1668e-08
866.4, 2.8647e-08
866.6, 2.5915e-08
866.8, 2.3443e-08
867.0, 2.1207e-08
867.2, 1.9185e-08
867.4, 1.7355e-08
867.6, 1.57e-08
867.8, 1.4202e-08
868.0, 1.2848e-08
868.2, 1.7521e-08
868.4, 2.3895e-08
868.6, 3.2588e-08
868.8, 4.4442e-08
869.0, 6.0609e-08
869.2, 8.2657e-08
869.4, 9.6247e-08
869.6, 8.5632e-08
869.8, 7.6187e-08
870.0, 6.7785e-08
870.2, 6.0308e-08
870.4, 5.3657e-08
870.6, 4.7739e-08
870.8, 4.2474e-08
871.0, 3.7789e-08
871.2, 3.3621e-08
871.4, 2.9913e-08
871.6, 2.6614e-08
871.8, 2.3679e-08
872.0, 2.1067e-08
872.2, 1.8744e-08
872.4, 1.6676e-08
872.6, 1.4837e-08
872.8, 1.3201e-08
873.0, 1.2249e-08
873.2, 1.2598e-08
873.4, 1.2956e-08
873.6, 1.3325e-08
873.8, 1.3704e-08
874.0, 1.4094e-08
874.2, 1.4495e-08
874.4, 1.4908e-08
874.6, 1.5332e-08
874.8, 1.5768e-08
875.0, 1.6217e-08
875.2, 1.6679e-08
875.4, 1.7153e-08
875.6, 1.7642e-08
875.8, 1.8144e-08
876.0, 1.866e-08
876.2, 1.9191e-08
876.4, 1.9737e-08
876.6, 2.0512e-08
876.8, 2.2097e-08
877.0, 2.3805e-08
877.2, 2.5645e-08
877.4, 2.7626e-08
877.6, 2.9761e-08
877.8, 3.2061e-08
878.0, 3.4539e-08
878.2, 3.7208e-08
878.4, 4.0084e-08
878.6, 4.3182e-08
878.8, 4.6519e-08
879.0, 5.0114e-08
879.2, 5.3987e-08
879.4, 5.8159e-08
879.6, 6.2653e-08
879.8, 6.7495e-08
880.0, 7.2711e-08
880.2, 7.7944e-08
880.4, 8.149e-08
880.6, 8.5197e-08
880.8, 8.9072e-08
881.0, 9.3124e-08
881.2, 9.736e-08
881.4, 1.0179e-07
881.6, 1.0642e-07
881.8, 1.1126e-07
882.0, 1.1632e-07
882.2, 1.2161e-07
882.4, 1.2714e-07
882.6, 1.3293e-07
882.8, 1.3897e-07
883.0, 1.453e-07
883.2, 1.519e-07
883.4, 1.5881e-07
883.6, 1.6604e-07
883.8, 1.7283e-07
884.0, 1.7395e-07
884.2, 1.7507e-07
884.4, 1.762e-07
884.6, 1.7733e-07
884.8, 1.7848e-07
885.0, 1.7963e-07
885.2, 1.8079e-07
885.4, 1.8195e-07
885.6, 1.8312e-07
885.8, 1.843e-07
886.0, 1.8549e-07
886.2, 1.8669e-07
886.4, 1.8789e-07
886.6, 1.891e-07
886.8, 1.9032e-07
887.0, 1.9155e-07
887.2, 1.9279e-07
887.4, 1.9303e-07
887.6, 1.8139e-07
887.8, 1.7046e-07
888.0, 1.6018e-07
888.2, 1.5052e-07
888.4, 1.4145e-07
888.6, 1.3292e-07
888.8, 1.249e-07
889.0, 1.1737e-07
889.2, 1.103e-07
889.4, 1.0365e-07
889.6, 9.7398e-08
889.8, 9.1525e-08
890.0, 8.6007e-08
890.2, 8.0822e-08
890.4, 7.5949e-08
890.6, 7.1369e-08
890.8, 6.7066e-08
891.0, 6.3066e-08
891.2, 6.0175e-08
891.4, 5.7416e-08
891.6, 5.4783e-08
891.8, 5.2271e-08
892.0, 4.9875e-08
892.2, 4.7588e-08
892.4, 4.5406e-08
892.6, 4.3324e-08
892.8, 4.1338e-08
893.0, 3.9443e-08
893.2, 3.7634e-08
893.4, 3.5909e-08
893.6, 3.4262e-08
893.8, 3.2691e-08
894.0, 3.1192e-08
894.2, 2.9762e-08
894.4, 2.8398e-08
894.6, 2.7146e-08
894.8, 2.7905e-08
895.0, 2.8685e-08
895.2, 2.9487e-08
895.4, 3.0311e-08
895.6, 3.1158e-08
895.8, 3.2029e-08
896.0, 3.2924e-08
896.2, 3.3844e-08
896.4, 3.479e-08
896.6, 3.5763e-08
896.8, 3.6762e-08
897.0, 3.779e-08
897.2, 3.8846e-08
897.4, 3.9932e-08
897.6, 4.1048e-08
897.8, 4.2195e-08
898.0, 4.3375e-08
898.2, 4.4534e-08
898.4, 4.229e-08
898.6, 4.0158e-08
898.8, 3.8135e-08
899.0, 3.6213e-08
899.2, 3.4388e-08
899.4, 3.2655e-08
899.6, 3.1009e-08
899.8, 2.9446e-08
900.0, 2.7962e-08
900.2, 2.6553e-08
900.4, 2.5215e-08
900.6, 2.3944e-08
900.8, 2.2737e-08
901.0, 2.1591e-08
901.2, 2.0503e-08
901.4, 1.947e-08
901.6, 1.8488e-08
901.8, 1.7583e-08
902.0, 1.9373e-08
902.2, 2.1345e-08
902.4, 2.3518e-08
902.6, 2.5913e-08
902.8, 2.8551e-08
903.0, 3.1458e-08
903.2, 3.4661e-08
903.4, 3.8189e-08
903.6, 4.2077e-08
903.8, 4.6361e-08
904.0, 5.1081e-08
904.2, 5.6282e-08
904.4, 6.2012e-08
904.6, 6.8325e-08
904.8, 7.5282e-08
905.0, 8.2946e-08
905.2, 9.1391e-08
905.4, 1.005e-07
905.6, 1.005e-07
905.8, 1.005e-07
906.0, 1.005e-07
906.2, 1.005e-07
906.4, 1.005e-07
906.6, 1.005e-07
906.8, 1.005e-07
907.0, 1.005e-07
907.2, 1.005e-07
907.4, 1.005e-07
907.6, 1.005e-07
907.8, 1.005e-07
908.0, 1.005e-07
908.2, 1.005e-07
908.4, 1.005e-07
908.6, 1.005e-07
908.8, 1.005e-07
909.0, 1.005e-07
909.2, 1.005e-07
909.4, 1.005e-07
909.6, 1.005e-07
909.8, 1.005e-07
910.0, 1.005e-07
910.2, 1.005e-07
910.4, 1.005e-07
910.6, 1.005e-07
910.8, 1.005e-07
911.0, 1.005e-07
911.2, 1.005e-07
911.4, 1.005e-07
911.6, 1.005e-07
911.8, 1.005e-07
912.0, 1.005e-07
912.2, 1.005e-07
912.4, 1.005e-07
912.6, 1.005e-07
912.8, 1.005e-07
913.0, 1.005e-07
913.2, 1.005e-07
913.4, 1.005e-07
913.6, 1.005e-07
913.8, 1.005e-07
914.0, 1.005e-07
914.2, 1.005e-07
914.4, 1.005e-07
914.6, 1.005e-07
914.8, 1.005e-07
915.0, 1.005e-07
915.2, 1.005e-07
915.4, 1.005e-07
915.6, 1.005e-07
915.8, 1.005e-07
916.0, 1.005e-07
916.2, 1.005e-07
916.4, 1.005e-07
916.6, 1.005e-07
916.8, 1.005e-07
917.0, 1.005e-07
917.2, 1.005e-07
917.4, 1.005e-07
917.6, 1.005e-07
917.8, 1.005e-07
918.0, 1.005e-07
918.2, 1.005e-07
918.4, 1.005e-07
918.6, 1.005e-07
918.8, 1.005e-07
919.0, 1.005e-07
919.2, 1.005e-07
919.4, 1.005e-07
919.6, 1.005e-07
919.8, 1.005e-07
920.0, 1.005e-07
920.2, 1.005e-07
920.4, 1.005e-07
920.6, 1.005e-07
920.8, 1.005e-07
921.0, 1.005e-07
921.2, 1.005e-07
921.4, 1.005e-07
921.6, 1.005e-07
921.8, 1.005e-07
922.0, 1.005e-07
922.2, 1.005e-07
922.4, 1.005e-07
922.6, 1.005e-07
922.8, 1.005e-07
923.0, 1.005e-07
923.2, 1.005e-07
923.4, 1.005e-07
923.6, 1.005e-07
923.8, 1.005e-07
924.0, 1.005e-07
924.2, 1.005e-07
924.4, 1.005e-07
924.6, 1.005e-07
924.8, 1.005e-07
925.0, 1.005e-07
925.2, 1.005e-07
925.4, 1.005e-07
925.6, 1.005e-07
925.8, 1.005e-07
926.0, 1.005e-07
926.2, 1.005e-07
926.4, 1.005e-07
926.6, 1.005e-07
926.8, 1.005e-07
927.0, 1.005e-07
927.2, 1.005e-07
927.4, 1.005e-07
927.6, 1.005e-07
927.8, 1.005e-07
928.0, 1.005e-07
928.2, 1.005e-07
928.4, 1.005e-07
928.6, 1.005e-07
928.8, 1.005e-07
929.0, 1.005e-07
929.2, 1.005e-07
929.4, 1.005e-07
929.6, 1.005e-07
929.8, 1.005e-07
930.0, 1.005e-07
930.2, 1.005e-07
930.4, 1.005e-07
930.6, 1.005e-07
930.8, 1.005e-07
931.0, 1.005e-07
931.2, 1.005e-07
931.4, 1.005e-07
931.6, 1.005e-07
931.8, 1.005e-07
932.0, 1.005e-07
932.2, 1.005e-07
932.4, 1.005e-07
932.6, 1.005e-07
932.8, 1.005e-07
933.0, 1.005e-07
933.2, 1.005e-07
933.4, 1.005e-07
933.6, 1.005e-07
933.8, 1.005e-07
934.0, 1.005e-07
934.2, 1.005e-07
934.4, 1.005e-07
934.6, 1.005e-07
934.8, 1.005e-07
935.0, 1.005e-07
935.2, 1.005e-07
935.4, 1.005e-07
935.6, 1.005e-07
935.8, 1.005e-07
936.0, 1.005e-07
936.2, 1.005e-07
936.4, 1.005e-07
936.6, 1.005e-07
936.8, 1.005e-07
937.0, 1.005e-07
937.2, 1.005e-07
937.4, 1.005e-07
937.6, 1.005e-07
937.8, 1.005e-07
938.0, 1.005e-07
938.2, 1.005e-07
938.4, 1.005e-07
938.6, 1.005e-07
938.8, 1.005e-07
939.0, 1.005e-07
939.2, 1.005e-07
939.4, 1.005e-07
939.6, 1.005e-07
939.8, 1.005e-07
940.0, 1.005e-07
940.2, 1.005e-07
940.4, 1.005e-07
940.6, 1.005e-07
940.8, 1.005e-07
941.0, 1.005e-07
941.2, 1.005e-07
941.4, 1.005e-07
941.6, 1.005e-07
941.8, 1.0009e-07
942.0, 9.401e-08
942.2, 8.8299e-08
942.4, 8.2934e-08
942.6, 7.7895e-08
942.8, 7.3163e-08
943.0, 6.8718e-08
943.2, 6.4543e-08
943.4, 6.0622e-08
943.6, 5.6939e-08
943.8, 5.3479e-08
944.0, 5.023e-08
944.2, 4.7178e-08
944.4, 4.4312e-08
944.6, 4.162e-08
944.8, 3.9091e-08
945.0, 3.6716e-08
945.2, 3.4486e-08
945.4, 3.2902e-08
945.6, 3.5032e-08
945.8, 3.7299e-08
946.0, 3.9713e-08
946.2, 4.2283e-08
946.4, 4.502e-08
946.6, 4.7934e-08
946.8, 5.1036e-08
947.0, 5.4339e-08
947.2, 5.7856e-08
947.4, 6.1601e-08
947.6, 6.5588e-08
947.8, 6.9833e-08
948.0, 7.4352e-08
948.2, 7.9165e-08
948.4, 8.4288e-08
948.6, 8.9744e-08
948.8, 9.5552e-08
949.0, 9.8487e-08
949.2, 8.8778e-08
949.4, 8.0026e-08
949.6, 7.2137e-08
949.8, 6.5026e-08
950.0, 5.8616e-08
950.2, 5.2838e-08
950.4, 4.7629e-08
950.6, 4.2934e-08
950.8, 3.8701e-08
951.0, 3.4886e-08
951.2, 3.1447e-08
951.4, 2.8347e-08
951.6, 2.5553e-08
951.8, 2.3034e-08
952.0, 2.0763e-08
952.2, 1.8716e-08
952.4, 1.6871e-08
952.6, 1.5789e-08
952.8, 1.6352e-08
953.0, 1.6935e-08
953.2, 1.7539e-08
953.4, 1.8165e-08
953.6, 1.8813e-08
953.8, 1.9483e-08
954.0, 2.0178e-08
954.2, 2.0898e-08
954.4, 2.1643e-08
954.6, 2.2415e-08
954.8, 2.3214e-08
955.0, 2.4042e-08
955.2, 2.49e-08
955.4, 2.5788e-08
955.6, 2.6707e-08
955.8, 2.766e-08
956.0, 2.8646e-08
956.2, 2.8966e-08
956.4, 2.807e-08
956.6, 2.7201e-08
956.8, 2.6359e-08
957.0, 2.5544e-08
957.2, 2.4753e-08
957.4, 2.3987e-08
957.6, 2.3245e-08
957.8, 2.2526e-08
958.0, 2.1828e-08
958.2, 2.1153e-08
958.4, 2.0498e-08
958.6, 1.9864e-08
958.8, 1.9249e-08
959.0, 1.8654e-08
959.2, 1.8076e-08
959.4, 1.7517e-08
959.6, 1.6975e-08
959.8, 1.6951e-08
960.0, 1.7548e-08
960.2, 1.8166e-08
960.4, 1.8806e-08
960.6, 1.9468e-08
960.8, 2.0153e-08
961.0, 2.0863e-08
961.2, 2.1598e-08
961.4, 2.2358e-08
961.6, 2.3146e-08
961.8, 2.3961e-08
962.0, 2.4804e-08
962.2, 2.5678e-08
962.4, 2.6582e-08
962.6, 2.7518e-08
962.8, 2.8487e-08
963.0, 2.949e-08
963.2, 3.0528e-08
963.4, 3.1392e-08
963.6, 3.2113e-08
963.8, 3.285e-08
964.0, 3.3605e-08
964.2, 3.4377e-08
964.4, 3.5167e-08
964.6, 3.5974e-08
964.8, 3.6801e-08
965.0, 3.7646e-08
965.2, 3.8511e-08
965.4, 3.9395e-08
965.6, 4.03e-08
965.8, 4.1226e-08
966.0, 4.2173e-08
966.2, 4.3142e-08
966.4, 4.4133e-08
966.6, 4.5147e-08
966.8, 4.6184e-08
967.0, 4.8106e-08
967.2, 5.0536e-08
967.4, 5.3089e-08
967.6, 5.5771e-08
967.8, 5.8589e-08
968.0, 6.1548e-08
968.2, 6.4658e-08
968.4, 6.7924e-08
968.6, 7.1355e-08
968.8, 7.496e-08
969.0, 7.8747e-08
969.2, 8.2725e-08
969.4, 8.6904e-08
969.6, 9.1294e-08
969.8, 9.5906e-08
970.0, 1.0075e-07
970.2, 1.0584e-07
970.4, 1.1119e-07
970.6, 1.1944e-07
970.8, 1.29e-07
971.0, 1.3933e-07
971.2, 1.5048e-07
971.4, 1.6253e-07
971.6, 1.7554e-07
971.8, 1.8959e-07
972.0, 2.0477e-07
972.2, 1.1652e-07
972.4, 1.4983e-07
972.6, 2.8785e-07
972.8, 2.6811e-07
973.0, 2.1719e-07
973.2, 1.4207e-07
973.4, 1.8815e-07
973.6, 2.8084e-07
973.8, 2.1892e-07
974.0, 1.1147e-07
974.2, 3.7071e-08
974.4, 7.5594e-08
974.6, 1.4054e-07
974.8, 8.0051e-08
975.0, 1.1211e-07
975.2, 2.8251e-07
975.4, 2.2709e-07
975.6, 2.195e-07
975.8, 3.1829e-07
976.0, 3.2539e-07
976.2, 2.9543e-07
976.4, 3.54e-07
976.6, 3.7292e-07
976.8, 3.3563e-07
977.0, 2.9518e-07
977.2, 2.6093e-07
977.4, 2.4087e-07
977.6, 2.4307e-07
977.8, 2.6346e-07
978.0, 2.0287e-07
978.2, 1.8766e-07
978.4, 2.8747e-07
978.6, 2.5037e-07
978.8, 1.6969e-07
979.0, 2.9114e-07
979.2, 4.1742e-07
979.4, 4.5971e-07
979.6, 4.2009e-07
979.8, 3.5195e-07
980.0, 2.432e-07
980.2, 2.6598e-07
980.4, 4.4825e-07
980.6, 4.5772e-07
980.8, 4.6214e-07
981.0, 5.4606e-07
981.2, 5.5614e-07
981.4, 5.1811e-07
981.6, 1.947e-07
981.8, 1.449e-07
982.0, 3.5689e-07
982.2, 6.51e-07
982.4, 9.9969e-07
982.6, 8.9072e-07
982.8, 7.5915e-07
983.0, 6.1602e-07
983.2, 5.2032e-07
983.4, 4.7204e-07
983.6, 5.3755e-07
983.8, 5.416e-07
984.0, 5.0116e-07
984.2, 5.0192e-07
984.4, 5.6696e-07
984.6, 8.1225e-07
984.8, 7.6794e-07
985.0, 6.193e-07
985.2, 6.438e-07
985.4, 6.9578e-07
985.6, 7.8929e-07
985.8, 9.919e-07
986.0, 1.1802e-06
986.2, 9.9612e-07
986.4, 9.3703e-07
986.6, 9.6149e-07
986.8, 1.008e-06
987.0, 1.0815e-06
987.2, 1.2201e-06
987.4, 1.2873e-06
987.6, 1.3133e-06
987.8, 1.3211e-06
988.0, 1.2985e-06
988.2, 1.235e-06
988.4, 1.3142e-06
988.6, 1.4321e-06
988.8, 1.5046e-06
989.0, 1.6152e-06
989.2, 1.7674e-06
989.4, 1.9387e-06
989.6, 2.0416e-06
989.8, 1.9291e-06
990.0, 1.9413e-06
990.2, 2.0228e-06
990.4, 2.1975e-06
990.6, 2.3562e-06
990.8, 2.476e-06
991.0, 2.6568e-06
991.2, 2.8269e-06
991.4, 2.7466e-06
991.6, 2.8154e-06
991.8, 3.0381e-06
992.0, 3.208e-06
992.2, 3.409e-06
992.4, 3.721e-06
992.6, 4.0055e-06
992.8, 4.2769e-06
993.0, 4.3448e-06
993.2, 4.4022e-06
993.4, 4.4409e-06
993.6, 5.0013e-06
993.8, 5.7649e-06
994.0, 6.0206e-06
994.2, 6.4612e-06
994.4, 7.1293e-06
994.6, 7.7431e-06
994.8, 8.3082e-06
995.0, 8.6452e-06
995.2, 9.139e-06
995.4, 9.757e-06
995.6, 1.1193e-05
995.8, 1.2526e-05
996.0, 1.3397e-05
996.2, 1.452e-05
996.4, 1.5852e-05
996.6, 1.7655e-05
996.8, 1.937e-05
997.0, 2.0914e-05
997.2, 2.3094e-05
997.4, 2.581e-05
997.6, 2.9648e-05
997.8, 3.3854e-05
998.0, 3.8504e-05
998.2, 4.3662e-05
998.4, 4.9494e-05
998.6, 5.6078e-05
998.8, 6.483e-05
999.0, 7.5583e-05
999.2, 8.8904e-05
999.4, 1.0564e-04
999.6, 1.2694e-04
999.8, 1.5358e-04
1000.0, 1.8695e-04
1000.2, 2.3734e-04
1000.4, 3.0248e-04
1000.6, 3.8883e-04
1000.8, 5.1552e-04
1001.0, 7.1191e-04
1001.2, 9.8471e-04
1001.4, 0.00139
1001.6, 0.00191
1001.8, 0.00236
1002.0, 0.0025
1002.2, 0.00224
1002.4, 0.00178
1002.6, 0.00136
1002.8, 0.00102
1003.0, 7.8208e-04
1003.2, 6.11e-04
1003.4, 5.0047e-04
1003.6, 4.0511e-04
1003.8, 3.4377e-04
1004.0, 2.9307e-04
1004.2, 2.535e-04
1004.4, 2.2563e-04
1004.6, 2.0141e-04
1004.8, 1.8122e-04
1005.0, 1.6286e-04
1005.2, 1.4739e-04
1005.4, 1.3666e-04
1005.6, 1.2664e-04
1005.8, 1.1762e-04
1006.0, 1.0906e-04
1006.2, 1.0467e-04
1006.4, 9.6152e-05
1006.6, 9.4837e-05
1006.8, 8.9496e-05
1007.0, 8.7321e-05
1007.2, 8.0302e-05
1007.4, 7.8615e-05
1007.6, 7.5354e-05
1007.8, 7.1986e-05
1008.0, 6.8732e-05
1008.2, 6.7949e-05
1008.4, 6.5535e-05
1008.6, 6.6976e-05
1008.8, 6.4962e-05
1009.0, 6.0886e-05
1009.2, 5.9416e-05
1009.4, 6.0726e-05
1009.6, 5.8472e-05
1009.8, 5.6135e-05
1010.0, 5.7277e-05
1010.2, 5.5761e-05
1010.4, 5.4861e-05
1010.6, 5.3257e-05
1010.8, 5.3827e-05
1011.0, 5.3539e-05
1011.2, 5.3804e-05
1011.4, 5.2456e-05
1011.6, 5.321e-05
1011.8, 5.2045e-05
1012.0, 5.3338e-05
1012.2, 5.1449e-05
1012.4, 5.3024e-05
1012.6, 5.5635e-05
1012.8, 5.265e-05
1013.0, 5.2359e-05
1013.2, 5.3007e-05
1013.4, 5.0717e-05
1013.6, 5.3735e-05
1013.8, 5.47e-05
1014.0, 5.5505e-05
1014.2, 5.2746e-05
1014.4, 5.099e-05
1014.6, 5.3432e-05
1014.8, 5.4314e-05
1015.0, 5.4698e-05
1015.2, 5.579e-05
1015.4, 5.6236e-05
1015.6, 5.7754e-05
1015.8, 5.5539e-05
1016.0, 5.8158e-05
1016.2, 6.0818e-05
1016.4, 6.1579e-05
1016.6, 6.0395e-05
1016.8, 5.8735e-05
1017.0, 6.0747e-05
1017.2, 6.3717e-05
1017.4, 6.5092e-05
1017.6, 6.3899e-05
1017.8, 6.4603e-05
1018.0, 6.5647e-05
1018.2, 6.9775e-05
1018.4, 6.9064e-05
1018.6, 6.7978e-05
1018.8, 6.8779e-05
1019.0, 6.9723e-05
1019.2, 7.3928e-05
1019.4, 7.6325e-05
1019.6, 7.6896e-05
1019.8, 7.6898e-05
1020.0, 8.0909e-05
1020.2, 8.2807e-05
1020.4, 8.6898e-05
1020.6, 8.7373e-05
1020.8, 9.0515e-05
1021.0, 8.9051e-05
1021.2, 9.3638e-05
1021.4, 9.5626e-05
1021.6, 1.017e-04
1021.8, 1.005e-04
1022.0, 1.0574e-04
1022.2, 1.1233e-04
1022.4, 1.1293e-04
1022.6, 1.1498e-04
1022.8, 1.1479e-04
1023.0, 1.2248e-04
1023.2, 1.2758e-04
1023.4, 1.2789e-04
1023.6, 1.3451e-04
1023.8, 1.4113e-04
1024.0, 1.4758e-04
1024.2, 1.5132e-04
1024.4, 1.5935e-04
1024.6, 1.6629e-04
1024.8, 1.7305e-04
1025.0, 1.8116e-04
1025.2, 1.8585e-04
1025.4, 1.938e-04
1025.6, 2.009e-04
1025.8, 2.0829e-04
1026.0, 2.2162e-04
1026.2, 2.3387e-04
1026.4, 2.4446e-04
1026.6, 2.5976e-04
1026.8, 2.7551e-04
1027.0, 2.8699e-04
1027.2, 3.007e-04
1027.4, 3.1637e-04
1027.6, 3.3526e-04
1027.8, 3.5756e-04
1028.0, 3.8599e-04
1028.2, 4.0992e-04
1028.4, 4.3282e-04
1028.6, 4.6119e-04
1028.8, 4.9209e-04
1029.0, 5.2588e-04
1029.2, 5.6768e-04
1029.4, 6.1362e-04
1029.6, 6.6163e-04
1029.8, 7.1392e-04
1030.0, 7.7072e-04
1030.2, 8.3435e-04
1030.4, 9.0714e-04
1030.6, 9.9439e-04
1030.8, 0.00108
1031.0, 0.00117
1031.2, 0.00128
1031.4, 0.00141
1031.6, 0.00154
1031.8, 0.00167
1032.0, 0.00182
1032.2, 0.00197
1032.4, 0.00213
1032.6, 0.00231
1032.8, 0.00246
1033.0, 0.00261
1033.2, 0.00276
1033.4, 0.00286
1033.6, 0.00294
1033.8, 0.00297
1034.0, 0.00296
1034.2, 0.00292
1034.4, 0.00283
1034.6, 0.00274
1034.8, 0.00263
1035.0, 0.00249
1035.2, 0.00234
1035.4, 0.00217
1035.6, 0.00202
1035.8, 0.00188
1036.0, 0.00175
1036.2, 0.00163
1036.4, 0.00151
1036.6, 0.00141
1036.8, 0.00132
1037.0, 0.00122
1037.2, 0.00113
1037.4, 0.00106
1037.6, 9.9942e-04
1037.8, 9.4047e-04
1038.0, 8.7453e-04
1038.2, 8.1704e-04
1038.4, 7.6953e-04
1038.6, 7.306e-04
1038.8, 6.9534e-04
1039.0, 6.6075e-04
1039.2, 6.2871e-04
1039.4, 5.9899e-04
1039.6, 5.7103e-04
1039.8, 5.4529e-04
1040.0, 5.2308e-04
1040.2, 4.9796e-04
1040.4, 4.7215e-04
1040.6, 4.5972e-04
1040.8, 4.4292e-04
1041.0, 4.1988e-04
1041.2, 4.0784e-04
1041.4, 3.9793e-04
1041.6, 3.8214e-04
1041.8, 3.6821e-04
1042.0, 3.5587e-04
1042.2, 3.5243e-04
1042.4, 3.4698e-04
1042.6, 3.3448e-04
1042.8, 3.2572e-04
1043.0, 3.1876e-04
1043.2, 3.0947e-04
1043.4, 2.9985e-04
1043.6, 2.8973e-04
1043.8, 2.8428e-04
1044.0, 2.7948e-04
1044.2, 2.7231e-04
1044.4, 2.6957e-04
1044.6, 2.7028e-04
1044.8, 2.6754e-04
1045.0, 2.5893e-04
1045.2, 2.5096e-04
1045.4, 2.4384e-04
1045.6, 2.4434e-04
1045.8, 2.4459e-04
1046.0, 2.3967e-04
1046.2, 2.3484e-04
1046.4, 2.2959e-04
1046.6, 2.2447e-04
1046.8, 2.2533e-04
1047.0, 2.2628e-04
1047.2, 2.2259e-04
1047.4, 2.1877e-04
1047.6, 2.1848e-04
1047.8, 2.1845e-04
1048.0, 2.1729e-04
1048.2, 2.1602e-04
1048.4, 2.1494e-04
1048.6, 2.139e-04
1048.8, 2.1158e-04
1049.0, 2.0906e-04
1049.2, 2.0834e-04
1049.4, 2.0802e-04
1049.6, 2.0627e-04
1049.8, 2.0416e-04
1050.0, 2.0597e-04
1050.2, 2.0905e-04
1050.4, 2.1097e-04
1050.6, 2.1247e-04
1050.8, 2.1256e-04
1051.0, 2.1206e-04
1051.2, 2.1202e-04
1051.4, 2.1219e-04
1051.6, 2.1606e-04
1051.8, 2.2206e-04
1052.0, 2.2188e-04
1052.2, 2.1797e-04
1052.4, 2.1948e-04
1052.6, 2.2472e-04
1052.8, 2.28e-04
1053.0, 2.2974e-04
1053.2, 2.2998e-04
1053.4, 2.2897e-04
1053.6, 2.312e-04
1053.8, 2.3655e-04
1054.0, 2.4101e-04
1054.2, 2.4446e-04
1054.4, 2.4836e-04
1054.6, 2.5278e-04
1054.8, 2.5667e-04
1055.0, 2.5984e-04
1055.2, 2.6235e-04
1055.4, 2.6386e-04
1055.6, 2.6585e-04
1055.8, 2.6862e-04
1056.0, 2.7363e-04
1056.2, 2.8277e-04
1056.4, 2.9036e-04
1056.6, 2.944e-04
1056.8, 2.9933e-04
1057.0, 3.0628e-04
1057.2, 3.1335e-04
1057.4, 3.2051e-04
1057.6, 3.2852e-04
1057.8, 3.3879e-04
1058.0, 3.4779e-04
1058.2, 3.516e-04
1058.4, 3.5633e-04
1058.6, 3.6454e-04
1058.8, 3.7393e-04
1059.0, 3.8815e-04
1059.2, 4.0176e-04
1059.4, 4.0936e-04
1059.6, 4.1768e-04
1059.8, 4.3008e-04
1060.0, 4.4268e-04
1060.2, 4.541e-04
1060.4, 4.663e-04
1060.6, 4.8464e-04
1060.8, 5.0385e-04
1061.0, 5.2656e-04
1061.2, 5.4995e-04
1061.4, 5.6288e-04
1061.6, 5.762e-04
1061.8, 5.989e-04
1062.0, 6.2248e-04
1062.2, 6.412e-04
1062.4, 6.6039e-04
1062.6, 6.8319e-04
1062.8, 7.069e-04
1063.0, 7.4193e-04
1063.2, 7.7946e-04
1063.4, 8.1095e-04
1063.6, 8.429e-04
1063.8, 8.7932e-04
1064.0, 9.1772e-04
1064.2, 9.6236e-04
1064.4, 0.00101
1064.6, 0.00105
1064.8, 0.0011
1065.0, 0.00125
1065.2, 0.00138
1065.4, 0.00153
1065.6, 0.0016
1065.8, 0.00168
1066.0, 0.00177
1066.2, 0.00186
1066.4, 0.00197
1066.6, 0.00208
1066.8, 0.0022
1067.0, 0.00232
1067.2, 0.00245
1067.4, 0.00259
1067.6, 0.00272
1067.8, 0.00287
1068.0, 0.00302
1068.2, 0.00321
1068.4, 0.00341
1068.6, 0.00362
1068.8, 0.00382
1069.0, 0.00403
1069.2, 0.00424
1069.4, 0.00447
1069.6, 0.00469
1069.8, 0.00493
1070.0, 0.00517
1070.2, 0.00539
1070.4, 0.00563
1070.6, 0.00586
1070.8, 0.00604
1071.0, 0.00623
1071.2, 0.00643
1071.4, 0.00653
1071.6, 0.00662
1071.8, 0.00671
1072.0, 0.00677
1072.2, 0.00681
1072.4, 0.00685
1072.6, 0.00684
1072.8, 0.00676
1073.0, 0.00668
1073.2, 0.00659
1073.4, 0.00645
1073.6, 0.00631
1073.8, 0.00617
1074.0, 0.00601
1074.2, 0.00584
1074.4, 0.00569
1074.6, 0.00539
1074.8, 0.00505
1075.0, 0.00473
1075.2, 0.00449
1075.4, 0.00435
1075.6, 0.00422
1075.8, 0.00409
1076.0, 0.00396
1076.2, 0.00382
1076.4, 0.00369
1076.6, 0.00357
1076.8, 0.00347
1077.0, 0.00337
1077.2, 0.00327
1077.4, 0.00317
1077.6, 0.00307
1077.8, 0.00297
1078.0, 0.00288
1078.2, 0.0028
1078.4, 0.00273
1078.6, 0.00265
1078.8, 0.00258
1079.0, 0.00251
1079.2, 0.00244
1079.4, 0.00238
1079.6, 0.00232
1079.8, 0.00228
1080.0, 0.00223
1080.2, 0.00219
1080.4, 0.00214
1080.6, 0.0021
1080.8, 0.00206
1081.0, 0.00202
1081.2, 0.00199
1081.4, 0.00196
1081.6, 0.00193
1081.8, 0.0019
1082.0, 0.00186
1082.2, 0.00182
1082.4, 0.00178
1082.6, 0.00177
1082.8, 0.00176
1083.0, 0.00174
1083.2, 0.00173
1083.4, 0.00171
1083.6, 0.00169
1083.8, 0.00168
1084.0, 0.00165
1084.2, 0.00163
1084.4, 0.0016
1084.6, 0.00158
1084.8, 0.00157
1085.0, 0.00156
1085.2, 0.00155
1085.4, 0.00154
1085.6, 0.00153
1085.8, 0.00152
1086.0, 0.00151
1086.2, 0.0015
1086.4, 0.00149
1086.6, 0.00149
1086.8, 0.00148
1087.0, 0.00148
1087.2, 0.00147
1087.4, 0.00147
1087.6, 0.00146
1087.8, 0.00146
1088.0, 0.00145
1088.2, 0.00145
1088.4, 0.00144
1088.6, 0.00144
1088.8, 0.00143
1089.0, 0.00143
1089.2, 0.00142
1089.4, 0.00142
1089.6, 0.00141
1089.8, 0.00141
1090.0, 0.00142
1090.2, 0.00142
1090.4, 0.00142
1090.6, 0.00142
1090.8, 0.00142
1091.0, 0.00142
1091.2, 0.00142
1091.4, 0.00142
1091.6, 0.00143
1091.8, 0.00143
1092.0, 0.00143
1092.2, 0.00143
1092.4, 0.00143
1092.6, 0.00143
1092.8, 0.00143
1093.0, 0.00144
1093.2, 0.00144
1093.4, 0.00145
1093.6, 0.00146
1093.8, 0.00147
1094.0, 0.00148
1094.2, 0.00148
1094.4, 0.00149
1094.6, 0.0015
1094.8, 0.00151
1095.0, 0.00152
1095.2, 0.00153
1095.4, 0.00153
1095.6, 0.00154
1095.8, 0.00155
1096.0, 0.00156
1096.2, 0.00158
1096.4, 0.00159
1096.6, 0.0016
1096.8, 0.00162
1097.0, 0.00163
1097.2, 0.00165
1097.4, 0.00166
1097.6, 0.00168
1097.8, 0.00169
1098.0, 0.00171
1098.2, 0.00172
1098.4, 0.00174
1098.6, 0.00175
1098.8, 0.00177
1099.0, 0.00178
1099.2, 0.0018
1099.4, 0.00181
1099.6, 0.00183
1099.8, 0.00185
1100.0, 0.00187
1100.2, 0.00189
1100.4, 0.0019
1100.6, 0.00192
1100.8, 0.00194
1101.0, 0.00196
1101.2, 0.00198
1101.4, 0.002
1101.6, 0.00202
1101.8, 0.00204
1102.0, 0.00206
1102.2, 0.00208
1102.4, 0.0021
1102.6, 0.00212
1102.8, 0.00215
1103.0, 0.00219
1103.2, 0.00222
1103.4, 0.00225
1103.6, 0.00229
1103.8, 0.00232
1104.0, 0.00235
1104.2, 0.00239
1104.4, 0.00243
1104.6, 0.00246
1104.8, 0.0025
1105.0, 0.00254
1105.2, 0.00258
1105.4, 0.00262
1105.6, 0.00267
1105.8, 0.00272
1106.0, 0.00278
1106.2, 0.00283
1106.4, 0.00288
1106.6, 0.00293
1106.8, 0.00299
1107.0, 0.00305
1107.2, 0.0031
1107.4, 0.00316
1107.6, 0.00322
1107.8, 0.00328
1108.0, 0.00334
1108.2, 0.00341
1108.4, 0.00347
1108.6, 0.00353
1108.8, 0.0036
1109.0, 0.00367
1085.4, 0.00154
1085.6, 0.00153
1085.8, 0.00152