#Typical Measured Spectrum of Semrock FF02-470/100 Optical Filter	
#For wavelengths between 320 and 1120 nm, values near or below 3e-7 (Optical Density 6.5) are measurement noise limited.
#For wavelengths < 320 nm and > 1120 nm, values near or below 3e-6 (Optical Density 5.5) are measurement noise limited.
#Data format:  Wavelength (nm) <tab> Transmission (0 to 1)
#Type: filter,
#name: Semrock FF02-470/100
wavelength,transmission
341.0, 5.5928e-07
341.2, 4.744e-07
341.4, 4.024e-07
341.6, 3.4133e-07
341.8, 2.8953e-07
342.0, 2.4559e-07
342.2, 2.0831e-07
342.4, 1.767e-07
342.6, 1.4988e-07
342.8, 1.2713e-07
343.0, 1.0784e-07
343.2, 9.1472e-08
343.4, 7.759e-08
343.6, 6.5814e-08
343.8, 5.5826e-08
344.0, 4.7353e-08
344.2, 4.0167e-08
344.4, 3.4071e-08
344.6, 2.89e-08
344.8, 2.4514e-08
345.0, 2.0793e-08
345.2, 2.0114e-08
345.4, 2.0108e-08
345.6, 2.0101e-08
345.8, 2.0094e-08
346.0, 2.0087e-08
346.2, 2.0081e-08
346.4, 2.0074e-08
346.6, 2.0067e-08
346.8, 2.006e-08
347.0, 2.0054e-08
347.2, 2.0047e-08
347.4, 2.004e-08
347.6, 2.0033e-08
347.8, 2.0027e-08
348.0, 2.002e-08
348.2, 2.0013e-08
348.4, 2.0006e-08
348.6, 2.0e-08
348.8, 1.9993e-08
349.0, 1.9986e-08
349.2, 1.998e-08
349.4, 1.9973e-08
349.6, 1.9966e-08
349.8, 1.9959e-08
350.0, 1.9953e-08
350.2, 1.9939e-08
350.4, 1.9923e-08
350.6, 1.9908e-08
350.8, 1.9893e-08
351.0, 1.9877e-08
351.2, 1.9862e-08
351.4, 1.9847e-08
351.6, 1.9831e-08
351.8, 1.9816e-08
352.0, 1.98e-08
352.2, 1.9785e-08
352.4, 1.977e-08
352.6, 1.9755e-08
352.8, 1.9739e-08
353.0, 1.9724e-08
353.2, 1.9709e-08
353.4, 1.9693e-08
353.6, 1.9678e-08
353.8, 1.9663e-08
354.0, 1.9648e-08
354.2, 1.9633e-08
354.4, 1.9617e-08
354.6, 1.9602e-08
354.8, 1.9587e-08
355.0, 1.9572e-08
355.2, 2.0586e-08
355.4, 2.1899e-08
355.6, 2.3295e-08
355.8, 2.478e-08
356.0, 2.636e-08
356.2, 2.804e-08
356.4, 2.9828e-08
356.6, 3.173e-08
356.8, 3.3753e-08
357.0, 3.5904e-08
357.2, 3.8193e-08
357.4, 4.0628e-08
357.6, 4.3219e-08
357.8, 4.5974e-08
358.0, 4.8905e-08
358.2, 5.2023e-08
358.4, 5.5339e-08
358.6, 5.8867e-08
358.8, 6.262e-08
359.0, 6.6612e-08
359.2, 7.0859e-08
359.4, 7.5377e-08
359.6, 8.0182e-08
359.8, 8.5294e-08
360.0, 9.0732e-08
360.2, 8.6823e-08
360.4, 8.13e-08
360.6, 7.6129e-08
360.8, 7.1287e-08
361.0, 6.6752e-08
361.2, 6.2507e-08
361.4, 5.8531e-08
361.6, 5.4808e-08
361.8, 5.1322e-08
362.0, 4.8057e-08
362.2, 4.5001e-08
362.4, 4.2138e-08
362.6, 3.9458e-08
362.8, 3.6948e-08
363.0, 3.4598e-08
363.2, 3.2398e-08
363.4, 3.0337e-08
363.6, 2.8407e-08
363.8, 2.66e-08
364.0, 2.4908e-08
364.2, 2.3324e-08
364.4, 2.1841e-08
364.6, 2.0451e-08
364.8, 1.9151e-08
365.0, 1.7932e-08
365.2, 1.9447e-08
365.4, 2.1711e-08
365.6, 2.4238e-08
365.8, 2.7059e-08
366.0, 3.0208e-08
366.2, 3.3724e-08
366.4, 3.7649e-08
366.6, 4.2031e-08
366.8, 4.6923e-08
367.0, 5.2385e-08
367.2, 5.8482e-08
367.4, 6.5289e-08
367.6, 7.2888e-08
367.8, 8.1371e-08
368.0, 9.0842e-08
368.2, 1.0142e-07
368.4, 1.1322e-07
368.6, 1.264e-07
368.8, 1.4111e-07
369.0, 1.5753e-07
369.2, 1.7587e-07
369.4, 1.9634e-07
369.6, 2.1919e-07
369.8, 2.447e-07
370.0, 2.7318e-07
370.2, 2.7413e-07
370.4, 2.685e-07
370.6, 2.6299e-07
370.8, 2.5759e-07
371.0, 2.523e-07
371.2, 2.4712e-07
371.4, 2.4205e-07
371.6, 2.3708e-07
371.8, 2.3221e-07
372.0, 2.2745e-07
372.2, 2.2278e-07
372.4, 2.182e-07
372.6, 2.1372e-07
372.8, 2.0934e-07
373.0, 2.0504e-07
373.2, 2.0083e-07
373.4, 1.9671e-07
373.6, 1.9267e-07
373.8, 1.8871e-07
374.0, 1.8484e-07
374.2, 1.8105e-07
374.4, 1.7733e-07
374.6, 1.7369e-07
374.8, 1.7012e-07
375.0, 1.6663e-07
375.2, 1.625e-07
375.4, 1.583e-07
375.6, 1.5421e-07
375.8, 1.5022e-07
376.0, 1.4634e-07
376.2, 1.4256e-07
376.4, 1.3887e-07
376.6, 1.3528e-07
376.8, 1.3179e-07
377.0, 1.2838e-07
377.2, 1.2506e-07
377.4, 1.2183e-07
377.6, 1.1868e-07
377.8, 1.1562e-07
378.0, 1.1263e-07
378.2, 1.0972e-07
378.4, 1.0688e-07
378.6, 1.0412e-07
378.8, 1.0143e-07
379.0, 9.8806e-08
379.2, 9.6252e-08
379.4, 9.3765e-08
379.6, 9.1341e-08
379.8, 8.898e-08
380.0, 8.6681e-08
380.2, 8.0453e-08
380.4, 7.3803e-08
380.6, 6.7703e-08
380.8, 6.2107e-08
381.0, 5.6974e-08
381.2, 5.2264e-08
381.4, 4.7945e-08
381.6, 4.3982e-08
381.8, 4.0346e-08
382.0, 3.7012e-08
382.2, 3.3952e-08
382.4, 3.1146e-08
382.6, 2.8572e-08
382.8, 2.621e-08
383.0, 2.4044e-08
383.2, 2.2056e-08
383.4, 2.0233e-08
383.6, 1.8561e-08
383.8, 1.7027e-08
384.0, 1.5619e-08
384.2, 1.4328e-08
384.4, 1.4264e-08
384.6, 1.477e-08
384.8, 1.5293e-08
385.0, 1.5836e-08
385.2, 1.6397e-08
385.4, 1.6979e-08
385.6, 1.7581e-08
385.8, 1.8204e-08
386.0, 1.885e-08
386.2, 1.9518e-08
386.4, 2.021e-08
386.6, 2.0927e-08
386.8, 2.1669e-08
387.0, 2.2437e-08
387.2, 2.3233e-08
387.4, 2.4057e-08
387.6, 2.491e-08
387.8, 2.5793e-08
388.0, 3.0435e-08
388.2, 3.6212e-08
388.4, 4.3086e-08
388.6, 5.1265e-08
388.8, 6.0996e-08
389.0, 7.2575e-08
389.2, 8.6352e-08
389.4, 1.0274e-07
389.6, 1.2225e-07
389.8, 1.4545e-07
390.0, 1.7306e-07
390.2, 2.0591e-07
390.4, 2.45e-07
390.6, 2.8734e-07
390.8, 2.7824e-07
391.0, 2.6944e-07
391.2, 2.6091e-07
391.4, 2.5265e-07
391.6, 2.4465e-07
391.8, 2.3691e-07
392.0, 2.2941e-07
392.2, 2.2215e-07
392.4, 2.1512e-07
392.6, 2.1038e-07
392.8, 2.0632e-07
393.0, 2.0234e-07
393.2, 1.9843e-07
393.4, 1.946e-07
393.6, 1.9084e-07
393.8, 1.8716e-07
394.0, 1.8355e-07
394.2, 1.8e-07
394.4, 1.7653e-07
394.6, 1.7312e-07
394.8, 1.6978e-07
395.0, 1.665e-07
395.2, 1.6328e-07
395.4, 1.6013e-07
395.6, 1.5704e-07
395.8, 1.5401e-07
396.0, 1.5101e-07
396.2, 1.4753e-07
396.4, 1.4413e-07
396.6, 1.4081e-07
396.8, 1.3756e-07
397.0, 1.3439e-07
397.2, 1.313e-07
397.4, 1.2827e-07
397.6, 1.2532e-07
397.8, 1.2243e-07
398.0, 1.1961e-07
398.2, 1.1685e-07
398.4, 1.1416e-07
398.6, 1.1153e-07
398.8, 1.0896e-07
399.0, 1.0645e-07
399.2, 1.0399e-07
399.4, 1.016e-07
399.6, 1.0862e-07
399.8, 1.4064e-07
400.0, 1.821e-07
400.2, 1.8207e-07
400.4, 1.801e-07
400.6, 1.7819e-07
400.8, 1.9324e-07
401.0, 3.3155e-07
401.2, 2.1215e-07
401.4, 6.1295e-07
401.6, 2.1321e-07
401.8, 7.5352e-07
402.0, 7.1306e-07
402.2, 5.7385e-07
402.4, 3.5674e-07
402.6, 1.6343e-07
402.8, 1.6185e-07
403.0, 2.2947e-07
403.2, 2.5641e-07
403.4, 1.573e-07
403.6, 1.5597e-07
403.8, 1.5456e-07
404.0, 3.0387e-07
404.2, 8.0581e-07
404.4, 1.7154e-07
404.6, 1.4923e-07
404.8, 3.0002e-07
405.0, 3.8683e-07
405.2, 4.72e-07
405.4, 2.4303e-07
405.6, 2.5304e-07
405.8, 4.2361e-07
406.0, 3.7472e-07
406.2, 1.5631e-07
406.4, 3.5211e-07
406.6, 1.3609e-07
406.8, 1.3497e-07
407.0, 1.3393e-07
407.2, 5.4756e-07
407.4, 8.5454e-07
407.6, 6.3717e-07
407.8, 2.9827e-07
408.0, 3.5127e-07
408.2, 2.1559e-07
408.4, 1.2829e-07
408.6, 1.2733e-07
408.8, 1.2658e-07
409.0, 2.0363e-07
409.2, 4.1116e-07
409.4, 1.5698e-07
409.6, 7.2491e-07
409.8, 2.1629e-07
410.0, 1.2035e-07
410.2, 1.193e-07
410.4, 3.1397e-07
410.6, 2.778e-07
410.8, 2.9114e-07
411.0, 4.1223e-07
411.2, 6.103e-07
411.4, 8.8023e-07
411.6, 9.9043e-07
411.8, 7.5298e-07
412.0, 9.0263e-07
412.2, 8.9785e-07
412.4, 1.0485e-06
412.6, 1.6238e-06
412.8, 2.3167e-06
413.0, 2.8248e-06
413.2, 3.1603e-06
413.4, 4.5198e-06
413.6, 6.9582e-06
413.8, 9.323e-06
414.0, 1.4776e-05
414.2, 2.3863e-05
414.4, 4.3034e-05
414.6, 7.4337e-05
414.8, 1.2931e-04
415.0, 2.603e-04
415.2, 5.5891e-04
415.4, 0.00126
415.6, 0.00346
415.8, 0.00875
416.0, 0.0244
416.2, 0.0761
416.4, 0.23451
416.6, 0.54439
416.8, 0.8149
417.0, 0.8551
417.2, 0.92143
417.4, 0.93422
417.6, 0.93286
417.8, 0.93077
418.0, 0.93101
418.2, 0.93742
418.4, 0.94257
418.6, 0.94506
418.8, 0.94612
419.0, 0.94481
419.2, 0.94606
419.4, 0.95073
419.6, 0.95539
419.8, 0.96186
420.0, 0.9665
420.2, 0.96941
420.4, 0.97096
420.6, 0.97243
420.8, 0.97245
421.0, 0.97299
421.2, 0.97206
421.4, 0.97004
421.6, 0.96707
421.8, 0.96364
422.0, 0.96066
422.2, 0.95701
422.4, 0.95642
422.6, 0.95558
422.8, 0.95476
423.0, 0.95567
423.2, 0.95936
423.4, 0.96065
423.6, 0.96353
423.8, 0.96591
424.0, 0.96954
424.2, 0.9734
424.4, 0.9746
424.6, 0.97495
424.8, 0.97328
425.0, 0.97045
425.2, 0.9674
425.4, 0.96376
425.6, 0.96073
425.8, 0.95945
426.0, 0.95975
426.2, 0.96251
426.4, 0.96554
426.6, 0.96925
426.8, 0.97214
427.0, 0.97368
427.2, 0.97053
427.4, 0.96726
427.6, 0.96341
427.8, 0.96018
428.0, 0.95794
428.2, 0.95759
428.4, 0.95707
428.6, 0.95836
428.8, 0.95988
429.0, 0.96068
429.2, 0.96125
429.4, 0.9622
429.6, 0.96416
429.8, 0.96563
430.0, 0.96753
430.2, 0.97075
430.4, 0.97382
430.6, 0.97668
430.8, 0.9792
431.0, 0.98096
431.2, 0.98075
431.4, 0.97902
431.6, 0.97679
431.8, 0.97295
432.0, 0.96984
432.2, 0.96627
432.4, 0.96533
432.6, 0.96368
432.8, 0.96381
433.0, 0.96465
433.2, 0.96662
433.4, 0.96808
433.6, 0.97034
433.8, 0.97109
434.0, 0.9732
434.2, 0.97383
434.4, 0.97434
434.6, 0.97404
434.8, 0.97419
435.0, 0.97172
435.2, 0.96987
435.4, 0.96719
435.6, 0.96376
435.8, 0.96006
436.0, 0.95689
436.2, 0.95353
436.4, 0.95156
436.6, 0.95106
436.8, 0.95125
437.0, 0.95304
437.2, 0.95587
437.4, 0.95966
437.6, 0.96335
437.8, 0.96746
438.0, 0.97137
438.2, 0.9748
438.4, 0.97793
438.6, 0.97978
438.8, 0.98126
439.0, 0.98134
439.2, 0.9816
439.4, 0.98141
439.6, 0.9808
439.8, 0.97852
440.0, 0.97684
440.2, 0.97478
440.4, 0.97262
440.6, 0.96963
440.8, 0.9665
441.0, 0.96498
441.2, 0.96262
441.4, 0.96128
441.6, 0.96074
441.8, 0.96118
442.0, 0.96255
442.2, 0.96449
442.4, 0.96701
442.6, 0.97035
442.8, 0.97372
443.0, 0.97785
443.2, 0.98064
443.4, 0.98366
443.6, 0.98544
443.8, 0.98557
444.0, 0.98622
444.2, 0.98628
444.4, 0.985
444.6, 0.98396
444.8, 0.98196
445.0, 0.9807
445.2, 0.97838
445.4, 0.97805
445.6, 0.97648
445.8, 0.97572
446.0, 0.97603
446.2, 0.97666
446.4, 0.9769
446.6, 0.97709
446.8, 0.97883
447.0, 0.97994
447.2, 0.98142
447.4, 0.98201
447.6, 0.98295
447.8, 0.98389
448.0, 0.98382
448.2, 0.98453
448.4, 0.98359
448.6, 0.98348
448.8, 0.98324
449.0, 0.98205
449.2, 0.98077
449.4, 0.97886
449.6, 0.97693
449.8, 0.97467
450.0, 0.97287
450.2, 0.97142
450.4, 0.96981
450.6, 0.96876
450.8, 0.96755
451.0, 0.96843
451.2, 0.96877
451.4, 0.97045
451.6, 0.97264
451.8, 0.97507
452.0, 0.97752
452.2, 0.9801
452.4, 0.98192
452.6, 0.98362
452.8, 0.98593
453.0, 0.9855
453.2, 0.9855
453.4, 0.98499
453.6, 0.98534
453.8, 0.98481
454.0, 0.98544
454.2, 0.98528
454.4, 0.98622
454.6, 0.98693
454.8, 0.98786
455.0, 0.98846
455.2, 0.98881
455.4, 0.98872
455.6, 0.98824
455.8, 0.9868
456.0, 0.9854
456.2, 0.98317
456.4, 0.98087
456.6, 0.97994
456.8, 0.97823
457.0, 0.97848
457.2, 0.97897
457.4, 0.97943
457.6, 0.98112
457.8, 0.98248
458.0, 0.98373
458.2, 0.98542
458.4, 0.98457
458.6, 0.98434
458.8, 0.9826
459.0, 0.98035
459.2, 0.97767
459.4, 0.97446
459.6, 0.97136
459.8, 0.96804
460.0, 0.96625
460.2, 0.96426
460.4, 0.96324
460.6, 0.96309
460.8, 0.96394
461.0, 0.96484
461.2, 0.96718
461.4, 0.96976
461.6, 0.97227
461.8, 0.97461
462.0, 0.97714
462.2, 0.97929
462.4, 0.98128
462.6, 0.98315
462.8, 0.98415
463.0, 0.98562
463.2, 0.98585
463.4, 0.9866
463.6, 0.98639
463.8, 0.98541
464.0, 0.98425
464.2, 0.98231
464.4, 0.98031
464.6, 0.97769
464.8, 0.97531
465.0, 0.97297
465.2, 0.97071
465.4, 0.9687
465.6, 0.96638
465.8, 0.96547
466.0, 0.96478
466.2, 0.96488
466.4, 0.96535
466.6, 0.96585
466.8, 0.96702
467.0, 0.96863
467.2, 0.97006
467.4, 0.97242
467.6, 0.97352
467.8, 0.97541
468.0, 0.97616
468.2, 0.97733
468.4, 0.97786
468.6, 0.9783
468.8, 0.97931
469.0, 0.9801
469.2, 0.97977
469.4, 0.97963
469.6, 0.97977
469.8, 0.97906
470.0, 0.97856
470.2, 0.97843
470.4, 0.97839
470.6, 0.9785
470.8, 0.97899
471.0, 0.97958
471.2, 0.97966
471.4, 0.98092
471.6, 0.98246
471.8, 0.98293
472.0, 0.98405
472.2, 0.98432
472.4, 0.98417
472.6, 0.98472
472.8, 0.98359
473.0, 0.9823
473.2, 0.98131
473.4, 0.98066
473.6, 0.97874
473.8, 0.9776
474.0, 0.97787
474.2, 0.97719
474.4, 0.97797
474.6, 0.97845
474.8, 0.9798
475.0, 0.98151
475.2, 0.98295
475.4, 0.98539
475.6, 0.98689
475.8, 0.98788
476.0, 0.98865
476.2, 0.98871
476.4, 0.98897
476.6, 0.98869
476.8, 0.98935
477.0, 0.98822
477.2, 0.98732
477.4, 0.98808
477.6, 0.9874
477.8, 0.9874
478.0, 0.98741
478.2, 0.9883
478.4, 0.98816
478.6, 0.98931
478.8, 0.99024
479.0, 0.991
479.2, 0.99173
479.4, 0.99207
479.6, 0.99281
479.8, 0.99313
480.0, 0.99314
480.2, 0.99406
480.4, 0.99404
480.6, 0.99422
480.8, 0.99414
481.0, 0.99357
481.2, 0.99259
481.4, 0.99173
481.6, 0.98928
481.8, 0.98712
482.0, 0.9843
482.2, 0.98229
482.4, 0.97999
482.6, 0.97713
482.8, 0.97623
483.0, 0.97477
483.2, 0.97409
483.4, 0.97453
483.6, 0.97565
483.8, 0.97716
484.0, 0.97929
484.2, 0.98082
484.4, 0.9834
484.6, 0.98607
484.8, 0.98748
485.0, 0.9889
485.2, 0.98991
485.4, 0.99066
485.6, 0.99049
485.8, 0.98992
486.0, 0.98981
486.2, 0.98922
486.4, 0.98904
486.6, 0.98849
486.8, 0.98827
487.0, 0.98787
487.2, 0.98842
487.4, 0.98855
487.6, 0.98893
487.8, 0.98944
488.0, 0.98899
488.2, 0.98915
488.4, 0.98896
488.6, 0.98834
488.8, 0.98858
489.0, 0.98717
489.2, 0.98741
489.4, 0.98687
489.6, 0.98664
489.8, 0.98644
490.0, 0.98666
490.2, 0.98765
490.4, 0.98741
490.6, 0.98809
490.8, 0.98857
491.0, 0.98882
491.2, 0.98828
491.4, 0.98733
491.6, 0.9866
491.8, 0.98565
492.0, 0.98388
492.2, 0.98227
492.4, 0.9811
492.6, 0.97928
492.8, 0.97786
493.0, 0.97656
493.2, 0.97612
493.4, 0.97585
493.6, 0.9761
493.8, 0.97726
494.0, 0.97886
494.2, 0.98086
494.4, 0.98253
494.6, 0.98475
494.8, 0.98717
495.0, 0.98938
495.2, 0.99143
495.4, 0.99287
495.6, 0.99386
495.8, 0.99454
496.0, 0.99508
496.2, 0.99475
496.4, 0.9939
496.6, 0.99338
496.8, 0.99202
497.0, 0.99117
497.2, 0.98996
497.4, 0.98954
497.6, 0.98939
497.8, 0.98892
498.0, 0.98896
498.2, 0.98967
498.4, 0.99091
498.6, 0.99198
498.8, 0.993
499.0, 0.99361
499.2, 0.99427
499.4, 0.99396
499.6, 0.99416
499.8, 0.99331
500.0, 0.99077
500.2, 0.98864
500.4, 0.9872
500.6, 0.986
500.8, 0.98482
501.0, 0.9836
501.2, 0.98239
501.4, 0.98192
501.6, 0.98188
501.8, 0.98208
502.0, 0.98236
502.2, 0.98285
502.4, 0.98345
502.6, 0.98384
502.8, 0.98449
503.0, 0.98435
503.2, 0.98396
503.4, 0.98367
503.6, 0.98368
503.8, 0.98354
504.0, 0.98322
504.2, 0.98228
504.4, 0.98239
504.6, 0.98303
504.8, 0.98355
505.0, 0.98378
505.2, 0.98453
505.4, 0.98519
505.6, 0.98536
505.8, 0.98616
506.0, 0.98669
506.2, 0.98719
506.4, 0.98692
506.6, 0.98703
506.8, 0.9873
507.0, 0.98752
507.2, 0.98719
507.4, 0.98679
507.6, 0.98735
507.8, 0.98707
508.0, 0.98631
508.2, 0.98554
508.4, 0.98408
508.6, 0.98275
508.8, 0.9811
509.0, 0.98034
509.2, 0.97905
509.4, 0.97834
509.6, 0.97884
509.8, 0.97934
510.0, 0.98099
510.2, 0.98257
510.4, 0.98477
510.6, 0.98727
510.8, 0.98875
511.0, 0.98942
511.2, 0.98898
511.4, 0.98783
511.6, 0.98547
511.8, 0.98307
512.0, 0.98025
512.2, 0.97718
512.4, 0.9751
512.6, 0.97304
512.8, 0.97318
513.0, 0.97388
513.2, 0.97559
513.4, 0.97864
513.6, 0.98162
513.8, 0.98368
514.0, 0.9865
514.2, 0.98782
514.4, 0.98841
514.6, 0.98856
514.8, 0.98758
515.0, 0.98715
515.2, 0.98608
515.4, 0.98545
515.6, 0.98498
515.8, 0.98498
516.0, 0.98481
516.2, 0.98519
516.4, 0.98442
516.6, 0.98385
516.8, 0.98263
517.0, 0.98209
517.2, 0.98176
517.4, 0.9812
517.6, 0.98229
517.8, 0.98239
518.0, 0.98327
518.2, 0.98241
518.4, 0.98065
518.6, 0.97782
518.8, 0.97307
519.0, 0.96744
519.2, 0.96
519.4, 0.95178
519.6, 0.94239
519.8, 0.93338
520.0, 0.92275
520.2, 0.91216
520.4, 0.90339
520.6, 0.89896
520.8, 0.90056
521.0, 0.90649
521.2, 0.91197
521.4, 0.91683
521.6, 0.92505
521.8, 0.93016
522.0, 0.85841
522.2, 0.53317
522.4, 0.20495
522.6, 0.0631
522.8, 0.02096
523.0, 0.0086
523.2, 0.00331
523.4, 9.4197e-04
523.6, 4.1263e-04
523.8, 1.9433e-04
524.0, 9.7577e-05
524.2, 5.2141e-05
524.4, 3.0132e-05
524.6, 1.481e-05
524.8, 7.5936e-06
525.0, 4.4454e-06
525.2, 2.6944e-06
525.4, 1.62e-06
525.6, 1.0695e-06
525.8, 7.5337e-07
526.0, 5.2591e-07
526.2, 4.2961e-07
526.4, 3.4861e-07
526.6, 2.7324e-07
526.8, 2.8219e-07
527.0, 2.8198e-07
527.2, 2.1196e-07
527.4, 2.192e-07
527.6, 2.1844e-07
527.8, 2.525e-07
528.0, 1.8322e-07
528.2, 1.2819e-07
528.4, 1.2867e-07
528.6, 1.746e-07
528.8, 1.8479e-07
529.0, 1.7058e-07
529.2, 1.5793e-07
529.4, 1.768e-07
529.6, 1.4245e-07
529.8, 1.6076e-07
530.0, 2.0789e-07
530.2, 1.0009e-07
530.4, 1.5742e-07
530.6, 1.5479e-07
530.8, 1.3319e-07
531.0, 1.0733e-07
531.2, 1.3418e-07
531.4, 1.2497e-07
531.6, 1.1544e-07
531.8, 1.2769e-07
532.0, 7.3463e-08
532.2, 8.5323e-08
532.4, 1.0289e-07
532.6, 1.2958e-07
532.8, 1.4762e-07
533.0, 1.3196e-07
533.2, 7.4104e-08
533.4, 5.6768e-08
533.6, 1.2878e-07
533.8, 1.4207e-07
534.0, 3.7033e-08
534.2, 2.5647e-08
534.4, 1.4252e-07
534.6, 1.1547e-07
534.8, 7.8604e-08
535.0, 1.4309e-07
535.2, 1.3103e-07
535.4, 1.041e-07
535.6, 1.0935e-07
535.8, 7.0815e-08
536.0, 5.0817e-08
536.2, 9.8883e-08
536.4, 8.8304e-08
536.6, 1.047e-07
536.8, 1.2164e-07
537.0, 1.0382e-07
537.2, 1.3026e-07
537.4, 9.5766e-08
537.6, 5.643e-08
537.8, 6.5011e-08
538.0, 8.0848e-08
538.2, 7.589e-08
538.4, 7.6511e-08
538.6, 1.1181e-07
538.8, 1.3464e-07
539.0, 1.6213e-07
539.2, 1.9523e-07
539.4, 2.3509e-07
539.6, 2.8309e-07
539.8, 3.4089e-07
540.0, 4.0183e-07
540.2, 3.9085e-07
540.4, 3.8017e-07
540.6, 3.6979e-07
540.8, 3.5969e-07
541.0, 3.4986e-07
541.2, 3.403e-07
541.4, 3.3101e-07
541.6, 3.2197e-07
541.8, 3.1317e-07
542.0, 3.0462e-07
542.2, 2.963e-07
542.4, 2.882e-07
542.6, 2.8033e-07
542.8, 2.7267e-07
543.0, 2.6522e-07
543.2, 2.5798e-07
543.4, 2.5093e-07
543.6, 2.4734e-07
543.8, 2.4681e-07
544.0, 2.4628e-07
544.2, 2.4575e-07
544.4, 2.4523e-07
544.6, 2.447e-07
544.8, 2.4418e-07
545.0, 2.4365e-07
545.2, 2.4313e-07
545.4, 2.4261e-07
545.6, 2.4209e-07
545.8, 2.4157e-07
546.0, 2.4105e-07
546.2, 2.4054e-07
546.4, 2.4002e-07
546.6, 2.3951e-07
546.8, 2.3899e-07
547.0, 2.3848e-07
547.2, 2.3797e-07
547.4, 2.3746e-07
547.6, 2.3695e-07
547.8, 2.3644e-07
548.0, 2.3594e-07
548.2, 2.3543e-07
548.4, 2.3486e-07
548.6, 2.3233e-07
548.8, 2.2982e-07
549.0, 2.2734e-07
549.2, 2.2488e-07
549.4, 2.2245e-07
549.6, 2.2005e-07
549.8, 2.1768e-07
550.0, 2.1533e-07
550.2, 2.13e-07
550.4, 2.107e-07
550.6, 2.0842e-07
550.8, 2.0617e-07
551.0, 2.0395e-07
551.2, 2.0175e-07
551.4, 1.9957e-07
551.6, 1.9741e-07
551.8, 1.9528e-07
552.0, 1.9317e-07
552.2, 1.9109e-07
552.4, 1.8902e-07
552.6, 1.8698e-07
552.8, 1.8496e-07
553.0, 1.8296e-07
553.2, 1.8099e-07
553.4, 1.7992e-07
553.6, 1.7962e-07
553.8, 1.7932e-07
554.0, 1.7902e-07
554.2, 1.7872e-07
554.4, 1.7841e-07
554.6, 1.7811e-07
554.8, 1.7781e-07
555.0, 1.7751e-07
555.2, 1.7722e-07
555.4, 1.7692e-07
555.6, 1.7662e-07
555.8, 1.7632e-07
556.0, 1.7603e-07
556.2, 1.7573e-07
556.4, 1.7543e-07
556.6, 1.7514e-07
556.8, 1.7484e-07
557.0, 1.7455e-07
557.2, 1.7426e-07
557.4, 1.7396e-07
557.6, 1.7367e-07
557.8, 1.7338e-07
558.0, 1.7309e-07
558.2, 1.7278e-07
558.4, 1.7201e-07
558.6, 1.7125e-07
558.8, 1.705e-07
559.0, 1.6975e-07
559.2, 1.69e-07
559.4, 1.6825e-07
559.6, 1.6751e-07
559.8, 1.6677e-07
560.0, 1.6604e-07
560.2, 1.6531e-07
560.4, 1.6458e-07
560.6, 1.6385e-07
560.8, 1.6313e-07
561.0, 1.6241e-07
561.2, 1.6169e-07
561.4, 1.6098e-07
561.6, 1.6027e-07
561.8, 1.5956e-07
562.0, 1.5886e-07
562.2, 1.5816e-07
562.4, 1.5746e-07
562.6, 1.5677e-07
562.8, 1.5608e-07
563.0, 1.5539e-07
563.2, 1.5481e-07
563.4, 1.5434e-07
563.6, 1.5386e-07
563.8, 1.5339e-07
564.0, 1.5292e-07
564.2, 1.5245e-07
564.4, 1.5198e-07
564.6, 1.5151e-07
564.8, 1.5105e-07
565.0, 1.5058e-07
565.2, 1.5012e-07
565.4, 1.4966e-07
565.6, 1.492e-07
565.8, 1.4874e-07
566.0, 1.4828e-07
566.2, 1.4782e-07
566.4, 1.4737e-07
566.6, 1.4692e-07
566.8, 1.4647e-07
567.0, 1.4601e-07
567.2, 1.4557e-07
567.4, 1.4512e-07
567.6, 1.4467e-07
567.8, 1.4423e-07
568.0, 1.4377e-07
568.2, 1.4279e-07
568.4, 1.4181e-07
568.6, 1.4085e-07
568.8, 1.3989e-07
569.0, 1.3893e-07
569.2, 1.3798e-07
569.4, 1.3704e-07
569.6, 1.361e-07
569.8, 1.3518e-07
570.0, 1.3425e-07
570.2, 1.3334e-07
570.4, 1.3243e-07
570.6, 1.3152e-07
570.8, 1.3062e-07
571.0, 1.2973e-07
571.2, 1.2885e-07
571.4, 1.2797e-07
571.6, 1.2709e-07
571.8, 1.2623e-07
572.0, 1.2537e-07
572.2, 1.2451e-07
572.4, 1.2366e-07
572.6, 1.2282e-07
572.8, 1.2198e-07
573.0, 1.2152e-07
573.2, 1.2141e-07
573.4, 1.2131e-07
573.6, 1.212e-07
573.8, 1.2109e-07
574.0, 1.2099e-07
574.2, 1.2088e-07
574.4, 1.2078e-07
574.6, 1.2067e-07
574.8, 1.2057e-07
575.0, 1.2046e-07
575.2, 1.2035e-07
575.4, 1.2025e-07
575.6, 1.2014e-07
575.8, 1.2004e-07
576.0, 1.1993e-07
576.2, 1.1983e-07
576.4, 1.1972e-07
576.6, 1.1962e-07
576.8, 1.1952e-07
577.0, 1.1941e-07
577.2, 1.1931e-07
577.4, 1.192e-07
577.6, 1.191e-07
577.8, 1.1899e-07
578.0, 1.1852e-07
578.2, 1.1804e-07
578.4, 1.1757e-07
578.6, 1.171e-07
578.8, 1.1663e-07
579.0, 1.1617e-07
579.2, 1.157e-07
579.4, 1.1524e-07
579.6, 1.1478e-07
579.8, 1.1432e-07
580.0, 1.1387e-07
580.2, 1.1341e-07
580.4, 1.1296e-07
580.6, 1.1251e-07
580.8, 1.1206e-07
581.0, 1.1161e-07
581.2, 1.1117e-07
581.4, 1.1072e-07
581.6, 1.1028e-07
581.8, 1.0984e-07
582.0, 1.094e-07
582.2, 1.0896e-07
582.4, 1.0853e-07
582.6, 1.0809e-07
582.8, 1.0804e-07
583.0, 1.0836e-07
583.2, 1.0867e-07
583.4, 1.0898e-07
583.6, 1.093e-07
583.8, 1.0962e-07
584.0, 1.0993e-07
584.2, 1.1025e-07
584.4, 1.1057e-07
584.6, 1.1089e-07
584.8, 1.1121e-07
585.0, 1.1153e-07
585.2, 1.1186e-07
585.4, 1.1218e-07
585.6, 1.1251e-07
585.8, 1.1283e-07
586.0, 1.1316e-07
586.2, 1.1349e-07
586.4, 1.1382e-07
586.6, 1.1415e-07
586.8, 1.1448e-07
587.0, 1.1481e-07
587.2, 1.1514e-07
587.4, 1.1547e-07
587.6, 1.1578e-07
587.8, 1.1522e-07
588.0, 1.1465e-07
588.2, 1.1409e-07
588.4, 1.1354e-07
588.6, 1.1298e-07
588.8, 1.1243e-07
589.0, 1.1188e-07
589.2, 1.1133e-07
589.4, 1.1079e-07
589.6, 1.1025e-07
589.8, 1.0971e-07
590.0, 1.0917e-07
590.2, 1.0864e-07
590.4, 1.0811e-07
590.6, 1.0758e-07
590.8, 1.0706e-07
591.0, 1.0653e-07
591.2, 1.0601e-07
591.4, 1.055e-07
591.6, 1.0498e-07
591.8, 1.0447e-07
592.0, 1.0396e-07
592.2, 1.0345e-07
592.4, 1.0291e-07
592.6, 1.0231e-07
592.8, 1.017e-07
593.0, 1.011e-07
593.2, 1.0051e-07
593.4, 9.9913e-08
593.6, 9.9324e-08
593.8, 9.8738e-08
594.0, 9.8156e-08
594.2, 9.7577e-08
594.4, 9.7001e-08
594.6, 9.6429e-08
594.8, 9.586e-08
595.0, 9.5295e-08
595.2, 9.4733e-08
595.4, 9.4174e-08
595.6, 9.3619e-08
595.8, 9.3067e-08
596.0, 9.3179e-08
596.2, 9.3478e-08
596.4, 9.3779e-08
596.6, 9.408e-08
596.8, 9.4382e-08
597.0, 9.4686e-08
597.2, 9.499e-08
597.4, 9.5295e-08
597.6, 9.5602e-08
597.8, 9.5909e-08
598.0, 9.6217e-08
598.2, 9.6526e-08
598.4, 9.6837e-08
598.6, 9.7148e-08
598.8, 9.746e-08
599.0, 9.7773e-08
599.2, 9.8192e-08
599.4, 1.0955e-07
599.6, 1.2223e-07
599.8, 1.3637e-07
600.0, 1.5215e-07
600.2, 1.6975e-07
600.4, 1.8939e-07
600.6, 2.113e-07
600.8, 2.3575e-07
601.0, 2.6302e-07
601.2, 2.9345e-07
601.4, 3.2741e-07
601.6, 3.6529e-07
601.8, 3.8374e-07
602.0, 3.8759e-07
602.2, 3.9148e-07
602.4, 3.9541e-07
602.6, 3.9938e-07
602.8, 4.0339e-07
603.0, 4.0744e-07
603.2, 3.9146e-07
603.4, 3.7512e-07
603.6, 3.5946e-07
603.8, 3.4446e-07
604.0, 3.3008e-07
604.2, 3.163e-07
604.4, 3.0687e-07
604.6, 3.0664e-07
604.8, 3.0642e-07
605.0, 3.0619e-07
605.2, 3.0596e-07
605.4, 3.0574e-07
605.6, 3.0551e-07
605.8, 3.0302e-07
606.0, 2.9929e-07
606.2, 2.9561e-07
606.4, 2.9197e-07
606.6, 2.8838e-07
606.8, 2.8483e-07
607.0, 2.8132e-07
607.2, 2.699e-07
607.4, 2.5886e-07
607.6, 2.4827e-07
607.8, 2.3812e-07
608.0, 2.2838e-07
608.2, 2.2621e-07
608.4, 2.2405e-07
608.6, 2.2192e-07
608.8, 2.1981e-07
609.0, 2.1923e-07
609.2, 2.1865e-07
609.4, 2.1808e-07
609.6, 2.1751e-07
609.8, 2.1694e-07
610.0, 2.1637e-07
610.2, 2.1581e-07
610.4, 2.1524e-07
610.6, 2.1468e-07
610.8, 2.1412e-07
611.0, 2.1356e-07
611.2, 2.13e-07
611.4, 2.1244e-07
611.6, 2.1188e-07
611.8, 2.1133e-07
612.0, 2.1078e-07
612.2, 2.1022e-07
612.4, 2.0967e-07
612.6, 2.0818e-07
612.8, 2.0608e-07
613.0, 2.04e-07
613.2, 2.0194e-07
613.4, 1.999e-07
613.6, 1.9788e-07
613.8, 1.9588e-07
614.0, 1.9391e-07
614.2, 1.9195e-07
614.4, 1.9001e-07
614.6, 1.881e-07
614.8, 1.862e-07
615.0, 1.8432e-07
615.2, 1.8246e-07
615.4, 1.8062e-07
615.6, 1.7879e-07
615.8, 1.7699e-07
616.0, 1.752e-07
616.2, 1.7401e-07
616.4, 1.7477e-07
616.6, 1.7552e-07
616.8, 1.7628e-07
617.0, 1.7704e-07
617.2, 1.7781e-07
617.4, 1.7858e-07
617.6, 1.7935e-07
617.8, 1.8013e-07
618.0, 1.8091e-07
618.2, 1.8169e-07
618.4, 1.8248e-07
618.6, 1.8326e-07
618.8, 1.8406e-07
619.0, 1.8485e-07
619.2, 1.8565e-07
619.4, 1.8646e-07
619.6, 1.8726e-07
619.8, 1.8807e-07
620.0, 1.8761e-07
620.2, 1.8695e-07
620.4, 1.8628e-07
620.6, 1.8562e-07
620.8, 1.8496e-07
621.0, 1.8431e-07
621.2, 1.8365e-07
621.4, 1.83e-07
621.6, 1.8235e-07
621.8, 1.817e-07
622.0, 1.8106e-07
622.2, 1.8042e-07
622.4, 1.7978e-07
622.6, 1.7914e-07
622.8, 1.785e-07
623.0, 1.7787e-07
623.2, 1.7724e-07
623.4, 1.7661e-07
623.6, 1.7583e-07
623.8, 1.749e-07
624.0, 1.7398e-07
624.2, 1.7306e-07
624.4, 1.7214e-07
624.6, 1.7123e-07
624.8, 1.7033e-07
625.0, 1.6943e-07
625.2, 1.6853e-07
625.4, 1.6764e-07
625.6, 1.6676e-07
625.8, 1.6588e-07
626.0, 1.65e-07
626.2, 1.6413e-07
626.4, 1.6326e-07
626.6, 1.624e-07
626.8, 1.6154e-07
627.0, 1.6069e-07
627.2, 1.5988e-07
627.4, 1.593e-07
627.6, 1.5872e-07
627.8, 1.5814e-07
628.0, 1.5757e-07
628.2, 1.57e-07
628.4, 1.5643e-07
628.6, 1.5586e-07
628.8, 1.5529e-07
629.0, 1.5473e-07
629.2, 1.5416e-07
629.4, 1.536e-07
629.6, 1.5305e-07
629.8, 1.5249e-07
630.0, 1.5194e-07
630.2, 1.5138e-07
630.4, 1.5083e-07
630.6, 1.5029e-07
630.8, 1.4974e-07
631.0, 1.487e-07
631.2, 1.4756e-07
631.4, 1.4642e-07
631.6, 1.453e-07
631.8, 1.4418e-07
632.0, 1.4307e-07
632.2, 1.4197e-07
632.4, 1.4088e-07
632.6, 1.398e-07
632.8, 1.3873e-07
633.0, 1.3766e-07
633.2, 1.366e-07
633.4, 1.3556e-07
633.6, 1.3451e-07
633.8, 1.3348e-07
634.0, 1.3246e-07
634.2, 1.3144e-07
634.4, 1.3043e-07
634.6, 1.2988e-07
634.8, 1.2979e-07
635.0, 1.297e-07
635.2, 1.296e-07
635.4, 1.2951e-07
635.6, 1.2942e-07
635.8, 1.2933e-07
636.0, 1.2924e-07
636.2, 1.2915e-07
636.4, 1.2906e-07
636.6, 1.2897e-07
636.8, 1.2888e-07
637.0, 1.2879e-07
637.2, 1.287e-07
637.4, 1.2861e-07
637.6, 1.2852e-07
637.8, 1.2843e-07
638.0, 1.2834e-07
638.2, 1.2848e-07
638.4, 1.2968e-07
638.6, 1.309e-07
638.8, 1.3213e-07
639.0, 1.3337e-07
639.2, 1.3462e-07
639.4, 1.3588e-07
639.6, 1.3716e-07
639.8, 1.3844e-07
640.0, 1.3974e-07
640.2, 1.4105e-07
640.4, 1.4238e-07
640.6, 1.4371e-07
640.8, 1.4506e-07
641.0, 1.4642e-07
641.2, 1.478e-07
641.4, 1.4918e-07
641.6, 1.5058e-07
641.8, 1.52e-07
642.0, 1.4777e-07
642.2, 1.4285e-07
642.4, 1.381e-07
642.6, 1.3351e-07
642.8, 1.2907e-07
643.0, 1.2477e-07
643.2, 1.2062e-07
643.4, 1.1661e-07
643.6, 1.1273e-07
643.8, 1.0898e-07
644.0, 1.0536e-07
644.2, 1.0186e-07
644.4, 9.8467e-08
644.6, 9.5192e-08
644.8, 9.2026e-08
645.0, 8.8965e-08
645.2, 8.6006e-08
645.4, 8.3146e-08
645.6, 8.3523e-08
645.8, 8.6316e-08
646.0, 8.9201e-08
646.2, 9.2184e-08
646.4, 9.5265e-08
646.6, 9.845e-08
646.8, 1.0174e-07
647.0, 1.0514e-07
647.2, 1.0866e-07
647.4, 1.1229e-07
647.6, 1.1605e-07
647.8, 1.1993e-07
648.0, 1.2393e-07
648.2, 1.2808e-07
648.4, 1.3236e-07
648.6, 1.3678e-07
648.8, 1.4136e-07
649.0, 1.4608e-07
649.2, 1.4913e-07
649.4, 1.4765e-07
649.6, 1.4619e-07
649.8, 1.4474e-07
650.0, 1.433e-07
650.2, 1.4188e-07
650.4, 1.4047e-07
650.6, 1.3908e-07
650.8, 1.377e-07
651.0, 1.3633e-07
651.2, 1.3498e-07
651.4, 1.3364e-07
651.6, 1.3231e-07
651.8, 1.31e-07
652.0, 1.297e-07
652.2, 1.2841e-07
652.4, 1.2714e-07
652.6, 1.2588e-07
652.8, 1.2464e-07
653.0, 1.248e-07
653.2, 1.2495e-07
653.4, 1.251e-07
653.6, 1.2526e-07
653.8, 1.2541e-07
654.0, 1.2557e-07
654.2, 1.2572e-07
654.4, 1.2588e-07
654.6, 1.2603e-07
654.8, 1.2619e-07
655.0, 1.2634e-07
655.2, 1.265e-07
655.4, 1.2666e-07
655.6, 1.2681e-07
655.8, 1.2697e-07
656.0, 1.2713e-07
656.2, 1.2728e-07
656.4, 1.2744e-07
656.6, 1.2367e-07
656.8, 1.1872e-07
657.0, 1.1398e-07
657.2, 1.0943e-07
657.4, 1.0506e-07
657.6, 1.0086e-07
657.8, 9.683e-08
658.0, 9.2961e-08
658.2, 8.9247e-08
658.4, 8.5682e-08
658.6, 8.2259e-08
658.8, 7.8973e-08
659.0, 7.5818e-08
659.2, 7.2789e-08
659.4, 6.9881e-08
659.6, 6.7089e-08
659.8, 6.4408e-08
660.0, 6.1835e-08
660.2, 6.103e-08
660.4, 6.1996e-08
660.6, 6.2976e-08
660.8, 6.3972e-08
661.0, 6.4984e-08
661.2, 6.6012e-08
661.4, 6.7056e-08
661.6, 6.8116e-08
661.8, 6.9194e-08
662.0, 7.0288e-08
662.2, 7.14e-08
662.4, 7.2529e-08
662.6, 7.3676e-08
662.8, 7.4841e-08
663.0, 7.6025e-08
663.2, 7.7228e-08
663.4, 7.8449e-08
663.6, 7.969e-08
663.8, 8.0128e-08
664.0, 7.8071e-08
664.2, 7.6068e-08
664.4, 7.4116e-08
664.6, 7.2214e-08
664.8, 7.0361e-08
665.0, 6.8555e-08
665.2, 6.6796e-08
665.4, 6.5082e-08
665.6, 6.3412e-08
665.8, 6.1785e-08
666.0, 6.0199e-08
666.2, 5.8654e-08
666.4, 5.7149e-08
666.6, 5.5683e-08
666.8, 5.4254e-08
667.0, 5.2861e-08
667.2, 5.1505e-08
667.4, 5.0191e-08
667.6, 4.9626e-08
667.8, 4.9068e-08
668.0, 4.8517e-08
668.2, 4.7971e-08
668.4, 4.7432e-08
668.6, 4.6898e-08
668.8, 4.6371e-08
669.0, 4.585e-08
669.2, 4.5334e-08
669.4, 4.4825e-08
669.6, 4.4321e-08
669.8, 4.3822e-08
670.0, 4.333e-08
670.2, 4.2842e-08
670.4, 4.2361e-08
670.6, 4.1884e-08
670.8, 4.1413e-08
671.0, 4.0948e-08
671.2, 4.0189e-08
671.4, 3.9363e-08
671.6, 3.8553e-08
671.8, 3.7761e-08
672.0, 3.6984e-08
672.2, 3.6223e-08
672.4, 3.5479e-08
672.6, 3.4749e-08
672.8, 3.4034e-08
673.0, 3.3334e-08
673.2, 3.2271e-08
673.4, 3.1241e-08
673.6, 3.0244e-08
673.8, 2.9279e-08
674.0, 2.8098e-08
674.2, 2.653e-08
674.4, 2.505e-08
674.6, 2.3653e-08
674.8, 2.2333e-08
675.0, 2.1088e-08
675.2, 1.9911e-08
675.4, 1.88e-08
675.6, 1.7752e-08
675.8, 1.6761e-08
676.0, 1.5826e-08
676.2, 1.4943e-08
676.4, 1.411e-08
676.6, 1.3323e-08
676.8, 1.2579e-08
677.0, 1.1878e-08
677.2, 1.1215e-08
677.4, 1.0589e-08
677.6, 1.0036e-08
677.8, 1.0403e-08
678.0, 1.0783e-08
678.2, 1.1178e-08
678.4, 1.1586e-08
678.6, 1.201e-08
678.8, 1.2449e-08
679.0, 1.2904e-08
679.2, 1.3376e-08
679.4, 1.3865e-08
679.6, 1.4372e-08
679.8, 1.4897e-08
680.0, 1.5442e-08
680.2, 1.6007e-08
680.4, 1.6592e-08
680.6, 1.7199e-08
680.8, 1.7827e-08
681.0, 1.8479e-08
681.2, 1.9155e-08
681.4, 1.9795e-08
681.6, 2.0434e-08
681.8, 2.1094e-08
682.0, 2.1776e-08
682.2, 2.2479e-08
682.4, 2.3205e-08
682.6, 2.3954e-08
682.8, 2.4728e-08
683.0, 2.5526e-08
683.2, 2.635e-08
683.4, 2.7201e-08
683.6, 2.808e-08
683.8, 2.8987e-08
684.0, 2.9923e-08
684.2, 3.0889e-08
684.4, 3.1887e-08
684.6, 3.2916e-08
684.8, 3.3979e-08
685.0, 3.4589e-08
685.2, 3.46e-08
685.4, 3.4611e-08
685.6, 3.4622e-08
685.8, 3.4633e-08
686.0, 3.4644e-08
686.2, 3.4655e-08
686.4, 3.4666e-08
686.6, 3.4677e-08
686.8, 3.4688e-08
687.0, 3.4699e-08
687.2, 3.471e-08
687.4, 3.4721e-08
687.6, 3.4732e-08
687.8, 3.4743e-08
688.0, 3.4754e-08
688.2, 3.4765e-08
688.4, 3.4776e-08
688.6, 3.4589e-08
688.8, 3.3392e-08
689.0, 3.2237e-08
689.2, 3.1121e-08
689.4, 3.0044e-08
689.6, 2.9005e-08
689.8, 2.8001e-08
690.0, 2.7032e-08
690.2, 2.6096e-08
690.4, 2.5193e-08
690.6, 2.4322e-08
690.8, 2.348e-08
691.0, 2.2667e-08
691.2, 2.1883e-08
691.4, 2.1126e-08
691.6, 2.0395e-08
691.8, 1.9689e-08
692.0, 1.9008e-08
692.2, 1.835e-08
692.4, 1.8958e-08
692.6, 1.9751e-08
692.8, 2.0577e-08
693.0, 2.1438e-08
693.2, 2.2335e-08
693.4, 2.327e-08
693.6, 2.4243e-08
693.8, 2.5258e-08
694.0, 2.6314e-08
694.2, 2.7415e-08
694.4, 2.8562e-08
694.6, 2.9757e-08
694.8, 3.1002e-08
695.0, 3.2299e-08
695.2, 3.3651e-08
695.4, 3.5058e-08
695.6, 3.6525e-08
695.8, 3.8053e-08
696.0, 3.884e-08
696.2, 3.9169e-08
696.4, 3.95e-08
696.6, 3.9834e-08
696.8, 4.0171e-08
697.0, 4.0511e-08
697.2, 4.0853e-08
697.4, 4.1199e-08
697.6, 4.1547e-08
697.8, 4.1899e-08
698.0, 4.2253e-08
698.2, 4.261e-08
698.4, 4.2971e-08
698.6, 4.3334e-08
698.8, 4.37e-08
699.0, 4.407e-08
699.2, 4.4443e-08
699.4, 4.4819e-08
699.6, 4.4611e-08
699.8, 4.3447e-08
700.0, 4.2313e-08
700.2, 4.1209e-08
700.4, 4.0134e-08
700.6, 3.9087e-08
700.8, 3.8067e-08
701.0, 3.7073e-08
701.2, 3.6106e-08
701.4, 3.5164e-08
701.6, 3.4246e-08
701.8, 3.3353e-08
702.0, 3.2483e-08
702.2, 3.1635e-08
702.4, 3.081e-08
702.6, 3.0006e-08
702.8, 2.9223e-08
703.0, 2.846e-08
703.2, 2.7895e-08
703.4, 2.8479e-08
703.6, 2.9076e-08
703.8, 2.9685e-08
704.0, 3.0307e-08
704.2, 3.0941e-08
704.4, 3.159e-08
704.6, 3.2251e-08
704.8, 3.2927e-08
705.0, 3.3617e-08
705.2, 3.4321e-08
705.4, 3.504e-08
705.6, 3.5774e-08
705.8, 3.6523e-08
706.0, 3.7288e-08
706.2, 3.8069e-08
706.4, 3.8867e-08
706.6, 3.9681e-08
706.8, 4.0512e-08
707.0, 4.1688e-08
707.2, 4.2934e-08
707.4, 4.4217e-08
707.6, 4.5538e-08
707.8, 4.6899e-08
708.0, 4.8301e-08
708.2, 4.9744e-08
708.4, 5.123e-08
708.6, 5.2761e-08
708.8, 5.4338e-08
709.0, 5.5962e-08
709.2, 5.7634e-08
709.4, 5.9356e-08
709.6, 6.113e-08
709.8, 6.2957e-08
710.0, 6.4838e-08
710.2, 6.6775e-08
710.4, 6.8771e-08
710.6, 6.8854e-08
710.8, 6.8027e-08
711.0, 6.7211e-08
711.2, 6.6404e-08
711.4, 6.5607e-08
711.6, 6.4819e-08
711.8, 6.4041e-08
712.0, 6.3272e-08
712.2, 6.2512e-08
712.4, 6.1762e-08
712.6, 6.102e-08
712.8, 6.0288e-08
713.0, 5.9564e-08
713.2, 5.8849e-08
713.4, 5.8142e-08
713.6, 5.7444e-08
713.8, 5.6755e-08
714.0, 5.6073e-08
714.2, 5.4173e-08
714.4, 5.1033e-08
714.6, 4.8074e-08
714.8, 4.5287e-08
715.0, 4.2662e-08
715.2, 4.0189e-08
715.4, 3.7859e-08
715.6, 3.5664e-08
715.8, 3.3597e-08
716.0, 3.1649e-08
716.2, 2.9814e-08
716.4, 2.8086e-08
716.6, 2.6458e-08
716.8, 2.4924e-08
717.0, 2.3479e-08
717.2, 2.2118e-08
717.4, 2.0836e-08
717.6, 1.9628e-08
717.8, 1.9263e-08
718.0, 2.1117e-08
718.2, 2.315e-08
718.4, 2.5378e-08
718.6, 2.7821e-08
718.8, 3.0499e-08
719.0, 3.3435e-08
719.2, 3.6654e-08
719.4, 4.0183e-08
719.6, 4.4051e-08
719.8, 4.8291e-08
720.0, 5.294e-08
720.2, 5.8036e-08
720.4, 6.3623e-08
720.6, 6.9748e-08
720.8, 7.6462e-08
721.0, 8.3823e-08
721.2, 9.1892e-08
721.4, 9.9295e-08
721.6, 9.0895e-08
721.8, 8.3205e-08
722.0, 7.6166e-08
722.2, 6.9722e-08
722.4, 6.3824e-08
722.6, 5.8424e-08
722.8, 5.3482e-08
723.0, 4.8957e-08
723.2, 4.4815e-08
723.4, 4.1024e-08
723.6, 3.7553e-08
723.8, 3.4376e-08
724.0, 3.1468e-08
724.2, 2.8806e-08
724.4, 2.6369e-08
724.6, 2.4138e-08
724.8, 2.2096e-08
725.0, 2.0227e-08
725.2, 2.0526e-08
725.4, 2.107e-08
725.6, 2.1628e-08
725.8, 2.2202e-08
726.0, 2.279e-08
726.2, 2.3394e-08
726.4, 2.4014e-08
726.6, 2.465e-08
726.8, 2.5304e-08
727.0, 2.5974e-08
727.2, 2.6663e-08
727.4, 2.7369e-08
727.6, 2.8095e-08
727.8, 2.8839e-08
728.0, 2.9604e-08
728.2, 3.0388e-08
728.4, 3.1193e-08
728.6, 3.202e-08
728.8, 3.1323e-08
729.0, 3.0087e-08
729.2, 2.8899e-08
729.4, 2.7758e-08
729.6, 2.6662e-08
729.8, 2.561e-08
730.0, 2.4599e-08
730.2, 2.3628e-08
730.4, 2.2695e-08
730.6, 2.1799e-08
730.8, 2.0939e-08
731.0, 2.0112e-08
731.2, 1.9318e-08
731.4, 1.8556e-08
731.6, 1.7823e-08
731.8, 1.712e-08
732.0, 1.6444e-08
732.2, 1.5795e-08
732.4, 1.6447e-08
732.6, 1.8225e-08
732.8, 2.0195e-08
733.0, 2.2378e-08
733.2, 2.4797e-08
733.4, 2.7478e-08
733.6, 3.0448e-08
733.8, 3.374e-08
734.0, 3.7387e-08
734.2, 4.1428e-08
734.4, 4.5906e-08
734.6, 5.0869e-08
734.8, 5.6368e-08
735.0, 6.2461e-08
735.2, 6.9213e-08
735.4, 7.6695e-08
735.6, 8.4985e-08
735.8, 9.4172e-08
736.0, 1.0e-07
736.2, 1.0e-07
736.4, 1.0e-07
736.6, 1.0e-07
736.8, 1.0e-07
737.0, 1.0e-07
737.2, 1.0e-07
737.4, 1.0e-07
737.6, 1.0e-07
737.8, 1.0e-07
738.0, 1.0e-07
738.2, 1.0e-07
738.4, 1.0e-07
738.6, 1.0e-07
738.8, 1.0e-07
739.0, 1.0e-07
739.2, 1.0e-07
739.4, 1.0e-07
739.6, 1.0e-07
739.8, 1.0e-07
740.0, 1.0e-07
740.2, 1.0e-07
740.4, 1.0e-07
740.6, 1.0e-07
740.8, 1.0e-07
741.0, 1.0e-07
741.2, 1.0e-07
741.4, 1.0e-07
741.6, 1.0e-07
741.8, 1.0e-07
742.0, 1.0e-07
742.2, 1.0e-07
742.4, 1.0e-07
742.6, 1.0e-07
742.8, 1.0e-07
743.0, 1.0e-07
743.2, 1.0e-07
743.4, 1.0e-07
743.6, 1.0e-07
743.8, 1.0e-07
744.0, 1.0e-07
744.2, 1.0e-07
744.4, 1.0e-07
744.6, 1.0e-07
744.8, 1.0e-07
745.0, 1.0e-07
745.2, 1.0e-07
745.4, 1.0e-07
745.6, 1.0e-07
745.8, 1.0e-07
746.0, 1.0e-07
746.2, 1.0e-07
746.4, 9.8663e-08
746.6, 9.224e-08
746.8, 8.6236e-08
747.0, 8.0622e-08
747.2, 7.5374e-08
747.4, 7.0468e-08
747.6, 6.588e-08
747.8, 6.1592e-08
748.0, 5.7582e-08
748.2, 5.3834e-08
748.4, 5.033e-08
748.6, 4.7053e-08
748.8, 4.3991e-08
749.0, 4.1127e-08
749.2, 3.845e-08
749.4, 3.5947e-08
749.6, 3.3607e-08
749.8, 3.1419e-08
750.0, 2.9374e-08
750.2, 3.1893e-08
750.4, 3.4681e-08
750.6, 3.7712e-08
750.8, 4.1009e-08
751.0, 4.4593e-08
751.2, 4.8491e-08
751.4, 5.2729e-08
751.6, 5.7338e-08
751.8, 6.235e-08
752.0, 6.78e-08
752.2, 7.3726e-08
752.4, 8.017e-08
752.6, 8.7177e-08
752.8, 9.4797e-08
753.0, 1.0308e-07
753.2, 1.1209e-07
753.4, 1.2189e-07
753.6, 1.3255e-07
753.8, 1.4264e-07
754.0, 1.531e-07
754.2, 1.6433e-07
754.4, 1.7638e-07
754.6, 1.8931e-07
754.8, 2.0319e-07
755.0, 2.1808e-07
755.2, 2.3407e-07
755.4, 2.5123e-07
755.6, 2.6965e-07
755.8, 2.8942e-07
756.0, 3.1064e-07
756.2, 3.3342e-07
756.4, 3.5787e-07
756.6, 3.841e-07
756.8, 4.1226e-07
757.0, 4.4249e-07
757.2, 4.7493e-07
757.4, 4.6963e-07
757.6, 4.4019e-07
757.8, 4.1259e-07
758.0, 3.8672e-07
758.2, 3.6248e-07
758.4, 3.3975e-07
758.6, 3.1845e-07
758.8, 2.9849e-07
759.0, 2.7977e-07
759.2, 2.6223e-07
759.4, 2.4579e-07
759.6, 2.3038e-07
759.8, 2.1594e-07
760.0, 2.024e-07
760.2, 1.8971e-07
760.4, 1.7782e-07
760.6, 1.6667e-07
760.8, 1.5622e-07
761.0, 1.4333e-07
761.2, 1.2767e-07
761.4, 1.1373e-07
761.6, 1.013e-07
761.8, 9.0239e-08
762.0, 8.0383e-08
762.2, 7.1602e-08
762.4, 6.3781e-08
762.6, 5.6814e-08
762.8, 5.0609e-08
763.0, 4.5081e-08
763.2, 4.0157e-08
763.4, 3.577e-08
763.6, 3.1863e-08
763.8, 2.8383e-08
764.0, 2.5282e-08
764.2, 2.2521e-08
764.4, 2.0061e-08
764.6, 1.8559e-08
764.8, 1.9235e-08
765.0, 1.9935e-08
765.2, 2.0661e-08
765.4, 2.1413e-08
765.6, 2.2192e-08
765.8, 2.3e-08
766.0, 2.3837e-08
766.2, 2.4705e-08
766.4, 2.5605e-08
766.6, 2.6537e-08
766.8, 2.7503e-08
767.0, 2.8504e-08
767.2, 2.9542e-08
767.4, 3.0617e-08
767.6, 3.1731e-08
767.8, 3.2887e-08
768.0, 3.4084e-08
768.2, 3.5394e-08
768.4, 3.7489e-08
768.6, 3.9708e-08
768.8, 4.2059e-08
769.0, 4.4548e-08
769.2, 4.7186e-08
769.4, 4.9979e-08
769.6, 5.2937e-08
769.8, 5.6071e-08
770.0, 5.939e-08
770.2, 6.2906e-08
770.4, 6.663e-08
770.6, 7.0574e-08
770.8, 7.4751e-08
771.0, 7.9176e-08
771.2, 8.3863e-08
771.4, 8.8828e-08
771.6, 9.4086e-08
771.8, 9.9656e-08
772.0, 9.5207e-08
772.2, 9.036e-08
772.4, 8.5759e-08
772.6, 8.1393e-08
772.8, 7.7249e-08
773.0, 7.3316e-08
773.2, 6.9584e-08
773.4, 6.6041e-08
773.6, 6.2679e-08
773.8, 5.9488e-08
774.0, 5.6459e-08
774.2, 5.3585e-08
774.4, 5.0856e-08
774.6, 4.8267e-08
774.8, 4.581e-08
775.0, 4.3478e-08
775.2, 4.1264e-08
775.4, 3.9163e-08
775.6, 3.7169e-08
775.8, 3.5277e-08
776.0, 3.3481e-08
776.2, 3.1776e-08
776.4, 3.0159e-08
776.6, 3.1639e-08
776.8, 3.3856e-08
777.0, 3.6228e-08
777.2, 3.8767e-08
777.4, 4.1483e-08
777.6, 4.439e-08
777.8, 4.75e-08
778.0, 5.0828e-08
778.2, 5.439e-08
778.4, 5.8201e-08
778.6, 6.2279e-08
778.8, 6.6643e-08
779.0, 7.1312e-08
779.2, 7.6309e-08
779.4, 8.1656e-08
779.6, 8.7377e-08
779.8, 9.35e-08
780.0, 9.8999e-08
780.2, 1.0378e-07
780.4, 1.088e-07
780.6, 1.1405e-07
780.8, 1.1957e-07
781.0, 1.2534e-07
781.2, 1.314e-07
781.4, 1.3775e-07
781.6, 1.4441e-07
781.8, 1.5138e-07
782.0, 1.587e-07
782.2, 1.6637e-07
782.4, 1.7441e-07
782.6, 1.8283e-07
782.8, 1.9167e-07
783.0, 2.0093e-07
783.2, 2.1064e-07
783.4, 2.2082e-07
783.6, 2.3149e-07
783.8, 2.4267e-07
784.0, 2.544e-07
784.2, 2.6669e-07
784.4, 2.7958e-07
784.6, 2.9309e-07
784.8, 3.0695e-07
785.0, 3.012e-07
785.2, 2.9556e-07
785.4, 2.9003e-07
785.6, 2.846e-07
785.8, 2.7927e-07
786.0, 2.7404e-07
786.2, 2.6891e-07
786.4, 2.6388e-07
786.6, 2.5894e-07
786.8, 2.5409e-07
787.0, 2.4933e-07
787.2, 2.4466e-07
787.4, 2.4008e-07
787.6, 2.3559e-07
787.8, 2.3118e-07
788.0, 2.2685e-07
788.2, 2.226e-07
788.4, 2.1844e-07
788.6, 2.1435e-07
788.8, 2.1033e-07
789.0, 2.064e-07
789.2, 2.0253e-07
789.4, 1.9874e-07
789.6, 1.9502e-07
789.8, 1.934e-07
790.0, 1.9371e-07
790.2, 1.9402e-07
790.4, 1.9433e-07
790.6, 1.9464e-07
790.8, 1.9495e-07
791.0, 1.9527e-07
791.2, 1.9558e-07
791.4, 1.9589e-07
791.6, 1.9621e-07
791.8, 1.9652e-07
792.0, 1.9684e-07
792.2, 1.9715e-07
792.4, 1.9747e-07
792.6, 1.9778e-07
792.8, 1.981e-07
793.0, 1.9842e-07
793.2, 1.9873e-07
793.4, 1.9905e-07
793.6, 1.9937e-07
793.8, 1.9969e-07
794.0, 2.0001e-07
794.2, 2.0033e-07
794.4, 2.0065e-07
794.6, 2.0096e-07
794.8, 2.0048e-07
795.0, 2.0e-07
795.2, 1.9952e-07
795.4, 1.9904e-07
795.6, 1.9856e-07
795.8, 1.9808e-07
796.0, 1.9761e-07
796.2, 1.9713e-07
796.4, 1.9666e-07
796.6, 1.9619e-07
796.8, 1.9572e-07
797.0, 1.9525e-07
797.2, 1.9478e-07
797.4, 1.9431e-07
797.6, 1.9385e-07
797.8, 1.9338e-07
798.0, 1.9292e-07
798.2, 1.9245e-07
798.4, 1.9199e-07
798.6, 1.9153e-07
798.8, 1.9107e-07
799.0, 1.9061e-07
799.2, 1.9016e-07
799.4, 1.897e-07
799.6, 1.8924e-07
799.8, 1.8879e-07
800.0, 1.8834e-07
800.2, 1.8788e-07
800.4, 1.8743e-07
800.6, 1.8729e-07
800.8, 1.8852e-07
801.0, 1.8976e-07
801.2, 1.9102e-07
801.4, 1.9227e-07
801.6, 1.9354e-07
801.8, 1.9482e-07
802.0, 1.961e-07
802.2, 1.974e-07
802.4, 1.987e-07
802.6, 2.0001e-07
802.8, 2.0133e-07
803.0, 2.0265e-07
803.2, 2.0399e-07
803.4, 2.0534e-07
803.6, 2.0669e-07
803.8, 2.0805e-07
804.0, 2.0942e-07
804.2, 2.1491e-07
804.4, 2.2106e-07
804.6, 2.2739e-07
804.8, 2.339e-07
805.0, 2.406e-07
805.2, 2.4749e-07
805.4, 2.5457e-07
805.6, 2.6186e-07
805.8, 2.6936e-07
806.0, 2.7707e-07
806.2, 2.85e-07
806.4, 2.9316e-07
806.6, 3.0156e-07
806.8, 3.1019e-07
807.0, 3.1907e-07
807.2, 3.2821e-07
807.4, 3.3761e-07
807.6, 3.4727e-07
807.8, 3.5721e-07
808.0, 3.6744e-07
808.2, 3.7796e-07
808.4, 3.8878e-07
808.6, 3.9992e-07
808.8, 4.1137e-07
809.0, 4.2314e-07
