#Typical Measured Spectrum of Semrock FF01-490/60 Optical Filter	
#For wavelengths between 320 and 1120 nm, values near or below 3e-7 (Optical Density 6.5) are measurement noise limited.
#For wavelengths < 320 nm and > 1120 nm, values near or below 3e-6 (Optical Density 5.5) are measurement noise limited. 
#Data format:  Wavelength (nm) <tab> Transmission (0 to 1)
#Type: filter,
#name: Semrock FF01-490/60
wavelength,transmission
200.0, 1.1101e-06
200.2, 1.0082e-06
200.4, 9.1564e-07
200.6, 8.3159e-07
200.8, 7.5526e-07
201.0, 6.8594e-07
201.2, 6.2297e-07
201.4, 5.6579e-07
201.6, 5.1386e-07
201.8, 4.6669e-07
202.0, 4.2385e-07
202.2, 3.8494e-07
202.4, 3.4961e-07
202.6, 3.1752e-07
202.8, 2.8837e-07
203.0, 2.619e-07
203.2, 2.3786e-07
203.4, 2.1603e-07
203.6, 1.962e-07
203.8, 1.7819e-07
204.0, 1.6183e-07
204.2, 1.4698e-07
204.4, 1.3349e-07
204.6, 1.2124e-07
204.8, 1.1011e-07
205.0, 1.0e-07
205.2, 1.0466e-07
205.4, 1.0954e-07
205.6, 1.1465e-07
205.8, 1.1999e-07
206.0, 1.2559e-07
206.2, 1.3144e-07
206.4, 1.3757e-07
206.6, 1.4399e-07
206.8, 1.507e-07
207.0, 1.5773e-07
207.2, 1.6508e-07
207.4, 1.7278e-07
207.6, 1.8083e-07
207.8, 1.8926e-07
208.0, 1.9809e-07
208.2, 2.0732e-07
208.4, 2.1699e-07
208.6, 2.271e-07
208.8, 2.3769e-07
209.0, 2.4877e-07
209.2, 2.6037e-07
209.4, 2.7251e-07
209.6, 2.8522e-07
209.8, 2.9852e-07
210.0, 3.1243e-07
210.2, 3.0061e-07
210.4, 2.8923e-07
210.6, 2.7828e-07
210.8, 2.6775e-07
211.0, 2.5761e-07
211.2, 2.4786e-07
211.4, 2.3848e-07
211.6, 2.2945e-07
211.8, 2.2077e-07
212.0, 2.1241e-07
212.2, 2.0437e-07
212.4, 1.9663e-07
212.6, 1.8919e-07
212.8, 1.8203e-07
213.0, 1.7514e-07
213.2, 1.6851e-07
213.4, 1.6213e-07
213.6, 1.5599e-07
213.8, 1.5009e-07
214.0, 1.4441e-07
214.2, 1.3894e-07
214.4, 1.3368e-07
214.6, 1.2862e-07
214.8, 1.2375e-07
215.0, 1.1907e-07
215.2, 1.2397e-07
215.4, 1.2907e-07
215.6, 1.3439e-07
215.8, 1.3992e-07
216.0, 1.4568e-07
216.2, 1.5168e-07
216.4, 1.5792e-07
216.6, 1.6442e-07
216.8, 1.7119e-07
217.0, 1.7824e-07
217.2, 1.8558e-07
217.4, 1.9322e-07
217.6, 2.0117e-07
217.8, 2.0945e-07
218.0, 2.1807e-07
218.2, 2.2705e-07
218.4, 2.364e-07
218.6, 2.4613e-07
218.8, 2.5626e-07
219.0, 2.6681e-07
219.2, 2.778e-07
219.4, 2.8923e-07
219.6, 3.0114e-07
219.8, 3.1354e-07
220.0, 3.2644e-07
220.2, 3.2851e-07
220.4, 3.3058e-07
220.6, 3.3267e-07
220.8, 3.3478e-07
221.0, 3.3689e-07
221.2, 3.3902e-07
221.4, 3.4117e-07
221.6, 3.4332e-07
221.8, 3.4549e-07
222.0, 3.4768e-07
222.2, 3.4987e-07
222.4, 3.5209e-07
222.6, 3.5431e-07
222.8, 3.5655e-07
223.0, 3.5881e-07
223.2, 3.6107e-07
223.4, 3.6336e-07
223.6, 3.6565e-07
223.8, 3.6796e-07
224.0, 3.7029e-07
224.2, 3.7263e-07
224.4, 3.7499e-07
224.6, 3.7736e-07
224.8, 3.7974e-07
225.0, 3.8214e-07
225.2, 3.9726e-07
225.4, 4.1298e-07
225.6, 4.2933e-07
225.8, 4.4631e-07
226.0, 4.6397e-07
226.2, 4.8233e-07
226.4, 5.0142e-07
226.6, 5.2126e-07
226.8, 5.4188e-07
227.0, 5.6332e-07
227.2, 5.8562e-07
227.4, 6.0879e-07
227.6, 6.3288e-07
227.8, 6.5792e-07
228.0, 6.8395e-07
228.2, 7.1101e-07
228.4, 7.3915e-07
228.6, 7.684e-07
228.8, 7.988e-07
229.0, 8.3041e-07
229.2, 8.6327e-07
229.4, 8.9742e-07
229.6, 9.3293e-07
229.8, 9.6985e-07
230.0, 1.0082e-06
230.2, 9.5043e-07
230.4, 8.9596e-07
230.6, 8.446e-07
230.8, 7.9619e-07
231.0, 7.5056e-07
231.2, 7.0753e-07
231.4, 6.6698e-07
231.6, 6.2875e-07
231.8, 5.9271e-07
232.0, 5.5874e-07
232.2, 5.2671e-07
232.4, 4.9652e-07
232.6, 4.6806e-07
232.8, 4.4123e-07
233.0, 4.1594e-07
233.2, 3.921e-07
233.4, 3.6963e-07
233.6, 3.4844e-07
233.8, 3.2847e-07
234.0, 3.0964e-07
234.2, 2.9189e-07
234.4, 2.7516e-07
234.6, 2.5939e-07
234.8, 2.4452e-07
235.0, 2.3051e-07
235.2, 2.2912e-07
235.4, 2.2774e-07
235.6, 2.2637e-07
235.8, 2.25e-07
236.0, 2.2365e-07
236.2, 2.223e-07
236.4, 2.2096e-07
236.6, 2.1963e-07
236.8, 2.1831e-07
237.0, 2.1699e-07
237.2, 2.1569e-07
237.4, 2.1439e-07
237.6, 2.1309e-07
237.8, 2.1181e-07
238.0, 2.1054e-07
238.2, 2.0927e-07
238.4, 2.0801e-07
238.6, 2.0675e-07
238.8, 2.0551e-07
239.0, 2.0427e-07
239.2, 2.0304e-07
239.4, 2.0182e-07
239.6, 2.006e-07
239.8, 1.9939e-07
240.0, 1.9819e-07
240.2, 1.9284e-07
240.4, 1.8764e-07
240.6, 1.8257e-07
240.8, 1.7764e-07
241.0, 1.7285e-07
241.2, 1.6818e-07
241.4, 1.6364e-07
241.6, 1.5923e-07
241.8, 1.5493e-07
242.0, 1.5075e-07
242.2, 1.4668e-07
242.4, 1.4272e-07
242.6, 1.3887e-07
242.8, 1.3512e-07
243.0, 1.3147e-07
243.2, 1.2792e-07
243.4, 1.2447e-07
243.6, 1.2111e-07
243.8, 1.1784e-07
244.0, 1.1466e-07
244.2, 1.1157e-07
244.4, 1.0856e-07
244.6, 1.0562e-07
244.8, 1.0277e-07
245.0, 1.0e-07
245.2, 1.0e-07
245.4, 1.0e-07
245.6, 1.0e-07
245.8, 1.0e-07
246.0, 1.0e-07
246.2, 1.0e-07
246.4, 1.0e-07
246.6, 1.0e-07
246.8, 1.0e-07
247.0, 1.0e-07
247.2, 1.0e-07
247.4, 1.0e-07
247.6, 1.0e-07
247.8, 1.0e-07
248.0, 1.0e-07
248.2, 1.0e-07
248.4, 1.0e-07
248.6, 1.0e-07
248.8, 1.0e-07
249.0, 1.0e-07
249.2, 1.0e-07
249.4, 1.0e-07
249.6, 1.0e-07
249.8, 1.0e-07
250.0, 1.0e-07
250.2, 1.0e-07
250.4, 1.0e-07
250.6, 1.0e-07
250.8, 1.0e-07
251.0, 1.0e-07
251.2, 1.0e-07
251.4, 1.0e-07
251.6, 1.0e-07
251.8, 1.0e-07
252.0, 1.0e-07
252.2, 1.0e-07
252.4, 1.0e-07
252.6, 1.0e-07
252.8, 1.0e-07
253.0, 1.0e-07
253.2, 1.0e-07
253.4, 1.0e-07
253.6, 1.0e-07
253.8, 1.0e-07
254.0, 1.0e-07
254.2, 1.0e-07
254.4, 1.0e-07
254.6, 1.0e-07
254.8, 1.0e-07
255.0, 1.0e-07
255.2, 1.0303e-07
255.4, 1.0616e-07
255.6, 1.0937e-07
255.8, 1.1269e-07
256.0, 1.1611e-07
256.2, 1.1963e-07
256.4, 1.2325e-07
256.6, 1.2699e-07
256.8, 1.3084e-07
257.0, 1.3481e-07
257.2, 1.3889e-07
257.4, 1.4311e-07
257.6, 1.4744e-07
257.8, 1.5191e-07
258.0, 1.5652e-07
258.2, 1.6127e-07
258.4, 1.6615e-07
258.6, 1.7119e-07
258.8, 1.7638e-07
259.0, 1.8173e-07
259.2, 1.8724e-07
259.4, 1.9292e-07
259.6, 1.9876e-07
259.8, 2.0479e-07
260.0, 2.11e-07
260.2, 2.0479e-07
260.4, 1.9876e-07
260.6, 1.9292e-07
260.8, 1.8724e-07
261.0, 1.8173e-07
261.2, 1.7638e-07
261.4, 1.7119e-07
261.6, 1.6615e-07
261.8, 1.6127e-07
262.0, 1.5652e-07
262.2, 1.5191e-07
262.4, 1.4744e-07
262.6, 1.4311e-07
262.8, 1.3889e-07
263.0, 1.3481e-07
263.2, 1.3084e-07
263.4, 1.2699e-07
263.6, 1.2325e-07
263.8, 1.1963e-07
264.0, 1.1611e-07
264.2, 1.1269e-07
264.4, 1.0937e-07
264.6, 1.0616e-07
264.8, 1.0303e-07
265.0, 1.0e-07
265.2, 1.0e-07
265.4, 1.0e-07
265.6, 1.0e-07
265.8, 1.0e-07
266.0, 1.0e-07
266.2, 1.0e-07
266.4, 1.0e-07
266.6, 1.0e-07
266.8, 1.0e-07
267.0, 1.0e-07
267.2, 1.0e-07
267.4, 1.0e-07
267.6, 1.0e-07
267.8, 1.0e-07
268.0, 1.0e-07
268.2, 1.0e-07
268.4, 1.0e-07
268.6, 1.0e-07
268.8, 1.0e-07
269.0, 1.0e-07
269.2, 1.0e-07
269.4, 1.0e-07
269.6, 1.0e-07
269.8, 1.0e-07
270.0, 1.0e-07
270.2, 1.0e-07
270.4, 1.0e-07
270.6, 1.0e-07
270.8, 1.0e-07
271.0, 1.0e-07
271.2, 1.0e-07
271.4, 1.0e-07
271.6, 1.0e-07
271.8, 1.0e-07
272.0, 1.0e-07
272.2, 1.0e-07
272.4, 1.0e-07
272.6, 1.0e-07
272.8, 1.0e-07
273.0, 1.0e-07
273.2, 1.0e-07
273.4, 1.0e-07
273.6, 1.0e-07
273.8, 1.0e-07
274.0, 1.0e-07
274.2, 1.0e-07
274.4, 1.0e-07
274.6, 1.0e-07
274.8, 1.0e-07
275.0, 1.0e-07
275.2, 1.0e-07
275.4, 1.0e-07
275.6, 1.0e-07
275.8, 1.0e-07
276.0, 1.0e-07
276.2, 1.0e-07
276.4, 1.0e-07
276.6, 1.0e-07
276.8, 1.0e-07
277.0, 1.0e-07
277.2, 1.0e-07
277.4, 1.0e-07
277.6, 1.0e-07
277.8, 1.0e-07
278.0, 1.0e-07
278.2, 1.0e-07
278.4, 1.0e-07
278.6, 1.0e-07
278.8, 1.0e-07
279.0, 1.0e-07
279.2, 1.0e-07
279.4, 1.0e-07
279.6, 1.0e-07
279.8, 1.0e-07
280.0, 1.0e-07
280.2, 1.0e-07
280.4, 1.0e-07
280.6, 1.0e-07
280.8, 1.0e-07
281.0, 1.0e-07
281.2, 1.0e-07
281.4, 1.0e-07
281.6, 1.0e-07
281.8, 1.0e-07
282.0, 1.0e-07
282.2, 1.0e-07
282.4, 1.0e-07
282.6, 1.0e-07
282.8, 1.0e-07
283.0, 1.0e-07
283.2, 1.0e-07
283.4, 1.0e-07
283.6, 1.0e-07
283.8, 1.0e-07
284.0, 1.0e-07
284.2, 1.0e-07
284.4, 1.0e-07
284.6, 1.0e-07
284.8, 1.0e-07
285.0, 1.0e-07
285.2, 1.0e-07
285.4, 1.0e-07
285.6, 1.0e-07
285.8, 1.0e-07
286.0, 1.0e-07
286.2, 1.0e-07
286.4, 1.0e-07
286.6, 1.0e-07
286.8, 1.0e-07
287.0, 1.0e-07
287.2, 1.0e-07
287.4, 1.0e-07
287.6, 1.0e-07
287.8, 1.0e-07
288.0, 1.0e-07
288.2, 1.0e-07
288.4, 1.0e-07
288.6, 1.0e-07
288.8, 1.0e-07
289.0, 1.0e-07
289.2, 1.0e-07
289.4, 1.0e-07
289.6, 1.0e-07
289.8, 1.0e-07
290.0, 1.0e-07
290.2, 1.0e-07
290.4, 1.0e-07
290.6, 1.0e-07
290.8, 1.0e-07
291.0, 1.0e-07
291.2, 1.0e-07
291.4, 1.0e-07
291.6, 1.0e-07
291.8, 1.0e-07
292.0, 1.0e-07
292.2, 1.0e-07
292.4, 1.0e-07
292.6, 1.0e-07
292.8, 1.0e-07
293.0, 1.0e-07
293.2, 1.0e-07
293.4, 1.0e-07
293.6, 1.0e-07
293.8, 1.0e-07
294.0, 1.0e-07
294.2, 1.0e-07
294.4, 1.0e-07
294.6, 1.0e-07
294.8, 1.0e-07
295.0, 1.0e-07
295.2, 1.0305e-07
295.4, 1.0619e-07
295.6, 1.0943e-07
295.8, 1.1277e-07
296.0, 1.1621e-07
296.2, 1.1976e-07
296.4, 1.2341e-07
296.6, 1.2718e-07
296.8, 1.3105e-07
297.0, 1.3505e-07
297.2, 1.3917e-07
297.4, 1.4342e-07
297.6, 1.4779e-07
297.8, 1.523e-07
298.0, 1.5695e-07
298.2, 1.6174e-07
298.4, 1.6667e-07
298.6, 1.7175e-07
298.8, 1.7699e-07
299.0, 1.8239e-07
299.2, 1.8796e-07
299.4, 1.9369e-07
299.6, 1.996e-07
299.8, 2.0569e-07
300.0, 2.1196e-07
300.2, 2.0996e-07
300.4, 2.0798e-07
300.6, 2.0602e-07
300.8, 2.0408e-07
301.0, 2.0215e-07
301.2, 2.0025e-07
301.4, 1.9836e-07
301.6, 1.9649e-07
301.8, 1.9463e-07
302.0, 1.928e-07
302.2, 1.9098e-07
302.4, 1.8918e-07
302.6, 1.8739e-07
302.8, 1.8563e-07
303.0, 1.8388e-07
303.2, 1.8214e-07
303.4, 1.8042e-07
303.6, 1.7872e-07
303.8, 1.7704e-07
304.0, 1.7537e-07
304.2, 1.7371e-07
304.4, 1.7207e-07
304.6, 1.7045e-07
304.8, 1.6884e-07
305.0, 1.6725e-07
305.2, 1.6385e-07
305.4, 1.6051e-07
305.6, 1.5724e-07
305.8, 1.5404e-07
306.0, 1.509e-07
306.2, 1.4783e-07
306.4, 1.4482e-07
306.6, 1.4187e-07
306.8, 1.3898e-07
307.0, 1.3615e-07
307.2, 1.3338e-07
307.4, 1.3066e-07
307.6, 1.28e-07
307.8, 1.254e-07
308.0, 1.2284e-07
308.2, 1.2034e-07
308.4, 1.1789e-07
308.6, 1.1549e-07
308.8, 1.1314e-07
309.0, 1.1083e-07
309.2, 1.0858e-07
309.4, 1.0637e-07
309.6, 1.042e-07
309.8, 1.0208e-07
310.0, 1.0e-07
310.2, 1.0e-07
310.4, 1.0e-07
310.6, 1.0e-07
310.8, 1.0e-07
311.0, 1.0e-07
311.2, 1.0e-07
311.4, 1.0e-07
311.6, 1.0e-07
311.8, 1.0e-07
312.0, 1.0e-07
312.2, 1.0e-07
312.4, 1.0e-07
312.6, 1.0e-07
312.8, 1.0e-07
313.0, 1.0e-07
313.2, 1.0e-07
313.4, 1.0e-07
313.6, 1.0e-07
313.8, 1.0e-07
314.0, 1.0e-07
314.2, 1.0e-07
314.4, 1.0e-07
314.6, 1.0e-07
314.8, 1.0e-07
315.0, 1.0e-07
315.2, 1.0006e-07
315.4, 1.0011e-07
315.6, 1.0017e-07
315.8, 1.0023e-07
316.0, 1.0028e-07
316.2, 1.0034e-07
316.4, 1.004e-07
316.6, 1.0045e-07
316.8, 1.0051e-07
317.0, 1.0057e-07
317.2, 1.0063e-07
317.4, 1.0068e-07
317.6, 1.0074e-07
317.8, 1.008e-07
318.0, 1.0085e-07
318.2, 1.0091e-07
318.4, 1.0097e-07
318.6, 1.0103e-07
318.8, 1.0108e-07
319.0, 1.0114e-07
319.2, 1.012e-07
319.4, 1.0125e-07
319.6, 1.0131e-07
319.8, 1.0137e-07
320.0, 1.0143e-07
320.2, 1.0137e-07
320.4, 1.0131e-07
320.6, 1.0125e-07
320.8, 1.012e-07
321.0, 1.0114e-07
321.2, 1.0108e-07
321.4, 1.0103e-07
321.6, 1.0097e-07
321.8, 1.0091e-07
322.0, 1.0085e-07
322.2, 1.008e-07
322.4, 1.0074e-07
322.6, 1.0068e-07
322.8, 1.0063e-07
323.0, 1.0057e-07
323.2, 1.0051e-07
323.4, 1.0045e-07
323.6, 1.004e-07
323.8, 1.0034e-07
324.0, 1.0028e-07
324.2, 1.0023e-07
324.4, 1.0017e-07
324.6, 1.0011e-07
324.8, 1.0006e-07
325.0, 1.0e-07
325.2, 1.0e-07
325.4, 1.0e-07
325.6, 1.0e-07
325.8, 1.0e-07
326.0, 1.0e-07
326.2, 1.0e-07
326.4, 1.0e-07
326.6, 1.0e-07
326.8, 1.0e-07
327.0, 1.0e-07
327.2, 1.0e-07
327.4, 1.0e-07
327.6, 1.0e-07
327.8, 1.0e-07
328.0, 1.0e-07
328.2, 1.0e-07
328.4, 1.0e-07
328.6, 1.0e-07
328.8, 1.0e-07
329.0, 1.0e-07
329.2, 1.0e-07
329.4, 1.0e-07
329.6, 1.0e-07
329.8, 1.0e-07
330.0, 1.0e-07
330.2, 1.0e-07
330.4, 1.0e-07
330.6, 1.0e-07
330.8, 1.0e-07
331.0, 1.0e-07
331.2, 1.0e-07
331.4, 1.0e-07
331.6, 1.0e-07
331.8, 1.0e-07
332.0, 1.0e-07
332.2, 1.0e-07
332.4, 1.0e-07
332.6, 1.0e-07
332.8, 1.0e-07
333.0, 1.0e-07
333.2, 1.0e-07
333.4, 1.0e-07
333.6, 1.0e-07
333.8, 1.0e-07
334.0, 1.0e-07
334.2, 1.0e-07
334.4, 1.0e-07
334.6, 1.0e-07
334.8, 1.0e-07
335.0, 1.0e-07
335.2, 1.0e-07
335.4, 1.0e-07
335.6, 1.0e-07
335.8, 1.0e-07
336.0, 1.0e-07
336.2, 1.0e-07
336.4, 1.0e-07
336.6, 1.0e-07
336.8, 1.0e-07
337.0, 1.0e-07
337.2, 1.0e-07
337.4, 1.0e-07
337.6, 1.0e-07
337.8, 1.0e-07
338.0, 1.0e-07
338.2, 1.0e-07
338.4, 1.0e-07
338.6, 1.0e-07
338.8, 1.0e-07
339.0, 1.0e-07
339.2, 1.0e-07
339.4, 1.0e-07
339.6, 1.0e-07
339.8, 1.0e-07
340.0, 1.0e-07
340.2, 1.0e-07
340.4, 1.0e-07
340.6, 1.0e-07
340.8, 1.0e-07
341.0, 1.0e-07
341.2, 1.0e-07
341.4, 1.0e-07
341.6, 1.0e-07
341.8, 1.0e-07
342.0, 1.0e-07
342.2, 1.0e-07
342.4, 1.0e-07
342.6, 1.0e-07
342.8, 1.0e-07
343.0, 1.0e-07
343.2, 1.0e-07
343.4, 1.0e-07
343.6, 1.0e-07
343.8, 1.0e-07
344.0, 1.0e-07
344.2, 1.0e-07
344.4, 1.0e-07
344.6, 1.0e-07
344.8, 1.0e-07
345.0, 1.0e-07
345.2, 1.0714e-07
345.4, 1.1479e-07
345.6, 1.2299e-07
345.8, 1.3177e-07
346.0, 1.4118e-07
346.2, 1.5126e-07
346.4, 1.6206e-07
346.6, 1.7364e-07
346.8, 1.8604e-07
347.0, 1.9932e-07
347.2, 2.1355e-07
347.4, 2.288e-07
347.6, 2.4514e-07
347.8, 2.6265e-07
348.0, 2.814e-07
348.2, 3.0149e-07
348.4, 3.2302e-07
348.6, 3.4609e-07
348.8, 3.708e-07
349.0, 3.9728e-07
349.2, 4.2565e-07
349.4, 4.5605e-07
349.6, 4.8861e-07
349.8, 5.235e-07
350.0, 5.6089e-07
350.2, 5.626e-07
350.4, 5.6432e-07
350.6, 5.6604e-07
350.8, 5.6777e-07
351.0, 5.6951e-07
351.2, 5.7125e-07
351.4, 5.73e-07
351.6, 5.7475e-07
351.8, 5.765e-07
352.0, 5.7827e-07
352.2, 5.8003e-07
352.4, 5.8181e-07
352.6, 5.8358e-07
352.8, 5.8537e-07
353.0, 5.8716e-07
353.2, 5.8895e-07
353.4, 5.9075e-07
353.6, 5.9256e-07
353.8, 5.9437e-07
354.0, 5.9618e-07
354.2, 5.9801e-07
354.4, 5.9983e-07
354.6, 6.0167e-07
354.8, 6.0351e-07
355.0, 6.0535e-07
355.2, 5.9923e-07
355.4, 5.9317e-07
355.6, 5.8718e-07
355.8, 5.8124e-07
356.0, 5.7536e-07
356.2, 5.6955e-07
356.4, 5.6379e-07
356.6, 5.5809e-07
356.8, 5.5245e-07
357.0, 5.4686e-07
357.2, 5.4133e-07
357.4, 5.3586e-07
357.6, 5.3044e-07
357.8, 5.2508e-07
358.0, 5.1977e-07
358.2, 5.1452e-07
358.4, 5.0932e-07
358.6, 5.0417e-07
358.8, 4.9907e-07
359.0, 4.9403e-07
359.2, 4.8903e-07
359.4, 4.8409e-07
359.6, 4.7919e-07
359.8, 4.7435e-07
360.0, 4.6955e-07
360.2, 4.8748e-07
360.4, 5.0609e-07
360.6, 5.2541e-07
360.8, 5.4547e-07
361.0, 5.6629e-07
361.2, 5.8791e-07
361.4, 6.1035e-07
361.6, 6.3366e-07
361.8, 6.5785e-07
362.0, 6.8296e-07
362.2, 7.0903e-07
362.4, 7.361e-07
362.6, 7.642e-07
362.8, 7.9338e-07
363.0, 8.2366e-07
363.2, 8.5511e-07
363.4, 8.8775e-07
363.6, 9.2164e-07
363.8, 9.5683e-07
364.0, 9.9336e-07
364.2, 1.0313e-06
364.4, 1.0706e-06
364.6, 1.1115e-06
364.8, 1.154e-06
365.0, 1.198e-06
365.2, 1.0847e-06
365.4, 9.8216e-07
365.6, 8.8929e-07
365.8, 8.052e-07
366.0, 7.2907e-07
366.2, 6.6013e-07
366.4, 5.9771e-07
366.6, 5.4119e-07
366.8, 4.9002e-07
367.0, 4.4369e-07
367.2, 4.0173e-07
367.4, 3.6375e-07
367.6, 3.2935e-07
367.8, 2.9821e-07
368.0, 2.7001e-07
368.2, 2.4448e-07
368.4, 2.2136e-07
368.6, 2.0043e-07
368.8, 1.8148e-07
369.0, 1.6432e-07
369.2, 1.4878e-07
369.4, 1.3471e-07
369.6, 1.2198e-07
369.8, 1.1044e-07
370.0, 1.0e-07
370.2, 1.0e-07
370.4, 1.0e-07
370.6, 1.0e-07
370.8, 1.0e-07
371.0, 1.0e-07
371.2, 1.0e-07
371.4, 1.0e-07
371.6, 1.0e-07
371.8, 1.0e-07
372.0, 1.0e-07
372.2, 1.0e-07
372.4, 1.0e-07
372.6, 1.0e-07
372.8, 1.0e-07
373.0, 1.0e-07
373.2, 1.0e-07
373.4, 1.0e-07
373.6, 1.0e-07
373.8, 1.0e-07
374.0, 1.0e-07
374.2, 1.0e-07
374.4, 1.0e-07
374.6, 1.0e-07
374.8, 1.0e-07
375.0, 1.0e-07
375.2, 1.0e-07
375.4, 1.0e-07
375.6, 1.0e-07
375.8, 1.0e-07
376.0, 1.0e-07
376.2, 1.0e-07
376.4, 1.0e-07
376.6, 1.0e-07
376.8, 1.0e-07
377.0, 1.0e-07
377.2, 1.0e-07
377.4, 1.0e-07
377.6, 1.0e-07
377.8, 1.0e-07
378.0, 1.0e-07
378.2, 1.0e-07
378.4, 1.0e-07
378.6, 1.0e-07
378.8, 1.0e-07
379.0, 1.0e-07
379.2, 1.0e-07
379.4, 1.0e-07
379.6, 1.0e-07
379.8, 1.0e-07
380.0, 1.0e-07
380.2, 1.0452e-07
380.4, 1.0924e-07
380.6, 1.1418e-07
380.8, 1.1934e-07
381.0, 1.2473e-07
381.2, 1.3037e-07
381.4, 1.3626e-07
381.6, 1.4242e-07
381.8, 1.4886e-07
382.0, 1.5559e-07
382.2, 1.6262e-07
382.4, 1.6997e-07
382.6, 1.7765e-07
382.8, 1.8568e-07
383.0, 1.9407e-07
383.2, 2.0284e-07
383.4, 2.1201e-07
383.6, 2.2159e-07
383.8, 2.316e-07
384.0, 2.4207e-07
384.2, 2.5301e-07
384.4, 2.6444e-07
384.6, 2.7639e-07
384.8, 2.8889e-07
385.0, 3.0194e-07
385.2, 2.8889e-07
385.4, 2.7639e-07
385.6, 2.6444e-07
385.8, 2.5301e-07
386.0, 2.4207e-07
386.2, 2.316e-07
386.4, 2.2159e-07
386.6, 2.1201e-07
386.8, 2.0284e-07
387.0, 1.9407e-07
387.2, 1.8568e-07
387.4, 1.7765e-07
387.6, 1.6997e-07
387.8, 1.6262e-07
388.0, 1.5559e-07
388.2, 1.4886e-07
388.4, 1.4242e-07
388.6, 1.3626e-07
388.8, 1.3037e-07
389.0, 1.2473e-07
389.2, 1.1934e-07
389.4, 1.1418e-07
389.6, 1.0924e-07
389.8, 1.0452e-07
390.0, 1.0e-07
390.2, 1.0813e-07
390.4, 1.1692e-07
390.6, 1.2642e-07
390.8, 1.3669e-07
391.0, 1.478e-07
391.2, 1.5982e-07
391.4, 1.7281e-07
391.6, 1.8685e-07
391.8, 2.0204e-07
392.0, 2.1846e-07
392.2, 2.3621e-07
392.4, 2.5541e-07
392.6, 2.7617e-07
392.8, 2.9862e-07
393.0, 3.2289e-07
393.2, 3.4913e-07
393.4, 3.7751e-07
393.6, 4.0819e-07
393.8, 4.4137e-07
394.0, 4.7724e-07
394.2, 5.1603e-07
394.4, 5.5797e-07
394.6, 6.0332e-07
394.8, 6.5236e-07
395.0, 7.0538e-07
395.2, 6.5236e-07
395.4, 6.0332e-07
395.6, 5.5797e-07
395.8, 5.1603e-07
396.0, 4.7724e-07
396.2, 4.4137e-07
396.4, 4.0819e-07
396.6, 3.7751e-07
396.8, 3.4913e-07
397.0, 3.2289e-07
397.2, 2.9862e-07
397.4, 2.7617e-07
397.6, 2.5541e-07
397.8, 2.3621e-07
398.0, 2.1846e-07
398.2, 2.0204e-07
398.4, 1.8685e-07
398.6, 1.7281e-07
398.8, 1.5982e-07
399.0, 1.478e-07
399.2, 1.3669e-07
399.4, 1.2642e-07
399.6, 1.1692e-07
399.8, 1.0813e-07
400.0, 1.0e-07
400.2, 1.0783e-07
400.4, 1.1627e-07
400.6, 1.2537e-07
400.8, 1.3519e-07
401.0, 1.4577e-07
401.2, 1.5719e-07
401.4, 1.6949e-07
401.6, 1.8276e-07
401.8, 1.9707e-07
402.0, 2.125e-07
402.2, 2.2914e-07
402.4, 2.4708e-07
402.6, 2.6642e-07
402.8, 2.8728e-07
403.0, 3.0977e-07
403.2, 3.3403e-07
403.4, 3.6018e-07
403.6, 3.8838e-07
403.8, 4.1879e-07
404.0, 4.5157e-07
404.2, 4.8693e-07
404.4, 5.2505e-07
404.6, 5.6616e-07
404.8, 6.1048e-07
405.0, 6.5828e-07
405.2, 6.1059e-07
405.4, 5.6635e-07
405.6, 5.2532e-07
405.8, 4.8727e-07
406.0, 4.5197e-07
406.2, 4.1922e-07
406.4, 3.8885e-07
406.6, 3.6068e-07
406.8, 3.3455e-07
407.0, 3.1031e-07
407.2, 2.8783e-07
407.4, 2.6698e-07
407.6, 2.4764e-07
407.8, 2.297e-07
408.0, 2.1306e-07
408.2, 1.9762e-07
408.4, 1.8331e-07
408.6, 1.7003e-07
408.8, 1.5771e-07
409.0, 1.4628e-07
409.2, 1.3569e-07
409.4, 1.2586e-07
409.6, 1.1674e-07
409.8, 1.0828e-07
410.0, 1.0044e-07
410.2, 1.0042e-07
410.4, 1.004e-07
410.6, 1.0038e-07
410.8, 1.0037e-07
411.0, 1.0035e-07
411.2, 1.0033e-07
411.4, 1.0031e-07
411.6, 1.003e-07
411.8, 1.0028e-07
412.0, 1.0026e-07
412.2, 1.0024e-07
412.4, 1.0023e-07
412.6, 1.0021e-07
412.8, 1.0019e-07
413.0, 1.0017e-07
413.2, 1.0016e-07
413.4, 1.0014e-07
413.6, 1.0012e-07
413.8, 1.001e-07
414.0, 1.0009e-07
414.2, 1.0007e-07
414.4, 1.0005e-07
414.6, 1.0003e-07
414.8, 1.0002e-07
415.0, 1.0e-07
415.2, 1.0e-07
415.4, 1.0e-07
415.6, 1.0e-07
415.8, 1.0e-07
416.0, 1.0e-07
416.2, 1.0e-07
416.4, 1.0e-07
416.6, 1.0e-07
416.8, 1.0e-07
417.0, 1.0e-07
417.2, 1.0e-07
417.4, 1.0e-07
417.6, 1.0e-07
417.8, 1.0e-07
418.0, 1.0e-07
418.2, 1.0e-07
418.4, 1.0e-07
418.6, 1.0e-07
418.8, 1.0e-07
419.0, 1.0e-07
419.2, 1.0e-07
419.4, 1.0e-07
419.6, 1.0e-07
419.8, 1.0e-07
420.0, 1.0e-07
420.2, 1.0533e-07
420.4, 1.1094e-07
420.6, 1.1685e-07
420.8, 1.2308e-07
421.0, 1.2964e-07
421.2, 1.3655e-07
421.4, 1.4383e-07
421.6, 1.5149e-07
421.8, 1.5957e-07
422.0, 1.6807e-07
422.2, 1.7703e-07
422.4, 1.8646e-07
422.6, 1.964e-07
422.8, 2.0686e-07
423.0, 2.1789e-07
423.2, 2.295e-07
423.4, 2.4173e-07
423.6, 2.5461e-07
423.8, 2.6818e-07
424.0, 2.8247e-07
424.2, 2.9753e-07
424.4, 3.1338e-07
424.6, 3.3009e-07
424.8, 3.4768e-07
425.0, 3.662e-07
425.2, 3.7263e-07
425.4, 3.7917e-07
425.6, 3.8583e-07
425.8, 3.926e-07
426.0, 3.9949e-07
426.2, 4.065e-07
426.4, 4.1363e-07
426.6, 4.2089e-07
426.8, 4.2828e-07
427.0, 4.3579e-07
427.2, 4.4344e-07
427.4, 4.5122e-07
427.6, 4.5914e-07
427.8, 4.672e-07
428.0, 4.754e-07
428.2, 4.8374e-07
428.4, 4.9223e-07
428.6, 5.0087e-07
428.8, 5.0966e-07
429.0, 5.1861e-07
429.2, 5.2771e-07
429.4, 5.3697e-07
429.6, 5.4639e-07
429.8, 5.5598e-07
430.0, 5.6574e-07
430.2, 5.579e-07
430.4, 5.5016e-07
430.6, 5.4254e-07
430.8, 5.3502e-07
431.0, 5.276e-07
431.2, 5.2029e-07
431.4, 5.1308e-07
431.6, 5.0596e-07
431.8, 4.9895e-07
432.0, 4.9203e-07
432.2, 4.8521e-07
432.4, 4.7849e-07
432.6, 4.7185e-07
432.8, 4.6531e-07
433.0, 4.5886e-07
433.2, 4.525e-07
433.4, 4.4623e-07
433.6, 4.4004e-07
433.8, 4.3394e-07
434.0, 4.2793e-07
434.2, 4.22e-07
434.4, 4.1615e-07
434.6, 4.1038e-07
434.8, 4.0469e-07
435.0, 3.9908e-07
435.2, 3.9667e-07
435.4, 3.9427e-07
435.6, 3.9188e-07
435.8, 3.8951e-07
436.0, 3.8716e-07
436.2, 3.8482e-07
436.4, 3.8249e-07
436.6, 3.8017e-07
436.8, 3.7788e-07
437.0, 3.7559e-07
437.2, 3.7332e-07
437.4, 3.7106e-07
437.6, 3.6882e-07
437.8, 3.6659e-07
438.0, 3.6437e-07
438.2, 3.6216e-07
438.4, 3.5997e-07
438.6, 3.578e-07
438.8, 3.5563e-07
439.0, 3.5348e-07
439.2, 3.5134e-07
439.4, 3.4922e-07
439.6, 3.4711e-07
439.8, 3.4501e-07
440.0, 3.4292e-07
440.2, 3.4925e-07
440.4, 3.5569e-07
440.6, 3.6225e-07
440.8, 3.6893e-07
441.0, 3.7574e-07
441.2, 3.8267e-07
441.4, 3.8973e-07
441.6, 3.9692e-07
441.8, 4.0424e-07
442.0, 4.1169e-07
442.2, 4.1929e-07
442.4, 4.2702e-07
442.6, 4.349e-07
442.8, 4.4292e-07
443.0, 4.5109e-07
443.2, 4.5941e-07
443.4, 4.6789e-07
443.6, 4.7652e-07
443.8, 4.8531e-07
444.0, 4.9426e-07
444.2, 5.0338e-07
444.4, 5.1267e-07
444.6, 5.2212e-07
444.8, 5.3175e-07
445.0, 5.4156e-07
445.2, 5.151e-07
445.4, 4.8992e-07
445.6, 4.6598e-07
445.8, 4.4321e-07
446.0, 4.2155e-07
446.2, 4.0095e-07
446.4, 3.8135e-07
446.6, 3.6272e-07
446.8, 3.4499e-07
447.0, 3.2813e-07
447.2, 3.1209e-07
447.4, 2.9684e-07
447.6, 2.8233e-07
447.8, 2.6854e-07
448.0, 2.5541e-07
448.2, 2.4293e-07
448.4, 2.3106e-07
448.6, 2.1977e-07
448.8, 2.0903e-07
449.0, 1.9881e-07
449.2, 1.891e-07
449.4, 1.7985e-07
449.6, 1.7106e-07
449.8, 1.627e-07
450.0, 1.5475e-07
450.2, 2.1523e-07
450.4, 2.9933e-07
450.6, 4.163e-07
450.8, 5.7898e-07
451.0, 8.0522e-07
451.2, 1.1199e-06
451.4, 1.5575e-06
451.6, 2.1661e-06
451.8, 3.0126e-06
452.0, 4.1898e-06
452.2, 5.8271e-06
452.4, 8.1041e-06
452.6, 1.1271e-05
452.8, 1.5675e-05
453.0, 2.1801e-05
453.2, 3.032e-05
453.4, 4.2168e-05
453.6, 5.8646e-05
453.8, 8.1563e-05
454.0, 1.1344e-04
454.2, 1.5776e-04
454.4, 2.1941e-04
454.6, 3.0515e-04
454.8, 4.244e-04
455.0, 6.1057e-04
455.2, 9.3951e-04
455.4, 0.00143
455.6, 0.00221
455.8, 0.00346
456.0, 0.00551
456.2, 0.00883
456.4, 0.0148
456.6, 0.02676
456.8, 0.04589
457.0, 0.07771
457.2, 0.12735
457.4, 0.197
457.6, 0.29497
457.8, 0.42208
458.0, 0.56764
458.2, 0.70952
458.4, 0.8206
458.6, 0.89181
458.8, 0.92711
459.0, 0.93924
459.2, 0.93827
459.4, 0.93254
459.6, 0.9286
459.8, 0.92654
460.0, 0.92679
460.2, 0.9286
460.4, 0.93239
460.6, 0.9361
460.8, 0.93957
461.0, 0.94314
461.2, 0.94344
461.4, 0.94358
461.6, 0.94379
461.8, 0.94372
462.0, 0.94258
462.2, 0.94136
462.4, 0.94046
462.6, 0.94017
462.8, 0.94033
463.0, 0.94091
463.2, 0.94105
463.4, 0.94181
463.6, 0.94198
463.8, 0.94299
464.0, 0.94338
464.2, 0.94396
464.4, 0.94338
464.6, 0.94361
464.8, 0.94368
465.0, 0.94272
465.2, 0.94151
465.4, 0.94223
465.6, 0.94182
465.8, 0.94019
466.0, 0.93931
466.2, 0.93854
466.4, 0.93774
466.6, 0.93791
466.8, 0.93913
467.0, 0.93873
467.2, 0.93963
467.4, 0.93914
467.6, 0.94133
467.8, 0.94146
468.0, 0.94261
468.2, 0.944
468.4, 0.94542
468.6, 0.94534
468.8, 0.94597
469.0, 0.94653
469.2, 0.94689
469.4, 0.94768
469.6, 0.94799
469.8, 0.94848
470.0, 0.94862
470.2, 0.94832
470.4, 0.94883
470.6, 0.94783
470.8, 0.94782
471.0, 0.94763
471.2, 0.94823
471.4, 0.94896
471.6, 0.95001
471.8, 0.94973
472.0, 0.95011
472.2, 0.95183
472.4, 0.95226
472.6, 0.95398
472.8, 0.95474
473.0, 0.95475
473.2, 0.95544
473.4, 0.9556
473.6, 0.95577
473.8, 0.95581
474.0, 0.95543
474.2, 0.95528
474.4, 0.95534
474.6, 0.9553
474.8, 0.95391
475.0, 0.95353
475.2, 0.95289
475.4, 0.95326
475.6, 0.952
475.8, 0.95052
476.0, 0.95074
476.2, 0.95022
476.4, 0.95025
476.6, 0.94999
476.8, 0.95082
477.0, 0.95104
477.2, 0.95161
477.4, 0.95215
477.6, 0.95309
477.8, 0.95347
478.0, 0.95447
478.2, 0.95548
478.4, 0.95649
478.6, 0.95743
478.8, 0.95898
479.0, 0.96093
479.2, 0.96119
479.4, 0.96136
479.6, 0.96126
479.8, 0.96059
480.0, 0.96071
480.2, 0.96118
480.4, 0.95994
480.6, 0.95914
480.8, 0.9592
481.0, 0.95772
481.2, 0.95597
481.4, 0.9544
481.6, 0.95308
481.8, 0.9512
482.0, 0.94954
482.2, 0.94817
482.4, 0.94698
482.6, 0.94583
482.8, 0.94492
483.0, 0.94465
483.2, 0.94423
483.4, 0.94286
483.6, 0.94334
483.8, 0.94407
484.0, 0.94379
484.2, 0.94483
484.4, 0.9458
484.6, 0.94759
484.8, 0.9474
485.0, 0.94822
485.2, 0.95056
485.4, 0.95202
485.6, 0.95286
485.8, 0.9543
486.0, 0.95523
486.2, 0.95651
486.4, 0.95741
486.6, 0.95971
486.8, 0.96028
487.0, 0.96068
487.2, 0.96017
487.4, 0.96127
487.6, 0.96084
487.8, 0.96103
488.0, 0.9612
488.2, 0.96003
488.4, 0.95915
488.6, 0.95826
488.8, 0.95635
489.0, 0.9549
489.2, 0.95403
489.4, 0.95492
489.6, 0.95248
489.8, 0.95099
490.0, 0.94984
490.2, 0.94883
490.4, 0.94825
490.6, 0.94838
490.8, 0.94773
491.0, 0.94754
491.2, 0.94709
491.4, 0.94724
491.6, 0.94737
491.8, 0.94876
492.0, 0.94984
492.2, 0.94944
492.4, 0.95036
492.6, 0.95101
492.8, 0.95159
493.0, 0.95342
493.2, 0.95486
493.4, 0.95566
493.6, 0.95568
493.8, 0.95694
494.0, 0.95835
494.2, 0.95919
494.4, 0.95921
494.6, 0.96007
494.8, 0.96078
495.0, 0.96107
495.2, 0.96179
495.4, 0.9614
495.6, 0.96171
495.8, 0.9613
496.0, 0.96075
496.2, 0.96064
496.4, 0.95945
496.6, 0.9596
496.8, 0.95948
497.0, 0.95926
497.2, 0.95854
497.4, 0.95744
497.6, 0.95721
497.8, 0.9566
498.0, 0.95645
498.2, 0.95649
498.4, 0.95591
498.6, 0.95547
498.8, 0.95505
499.0, 0.95418
499.2, 0.95369
499.4, 0.95405
499.6, 0.95417
499.8, 0.95439
500.0, 0.95216
500.2, 0.95078
500.4, 0.95132
500.6, 0.95206
500.8, 0.95322
501.0, 0.95419
501.2, 0.95528
501.4, 0.95481
501.6, 0.95588
501.8, 0.95695
502.0, 0.95764
502.2, 0.95825
502.4, 0.95868
502.6, 0.95912
502.8, 0.95931
503.0, 0.95978
503.2, 0.9597
503.4, 0.95919
503.6, 0.95887
503.8, 0.9589
504.0, 0.95912
504.2, 0.95842
504.4, 0.95807
504.6, 0.95809
504.8, 0.95766
505.0, 0.95739
505.2, 0.95859
505.4, 0.95723
505.6, 0.95692
505.8, 0.95698
506.0, 0.95722
506.2, 0.95711
506.4, 0.95692
506.6, 0.9568
506.8, 0.95689
507.0, 0.95661
507.2, 0.95597
507.4, 0.95623
507.6, 0.95612
507.8, 0.95601
508.0, 0.9557
508.2, 0.95497
508.4, 0.95477
508.6, 0.95499
508.8, 0.95555
509.0, 0.9553
509.2, 0.95496
509.4, 0.95507
509.6, 0.95555
509.8, 0.95586
510.0, 0.95625
510.2, 0.95665
510.4, 0.95657
510.6, 0.95717
510.8, 0.95751
511.0, 0.95746
511.2, 0.95754
511.4, 0.95744
511.6, 0.95734
511.8, 0.95694
512.0, 0.95736
512.2, 0.95748
512.4, 0.95646
512.6, 0.95653
512.8, 0.95645
513.0, 0.95558
513.2, 0.95538
513.4, 0.95505
513.6, 0.95412
513.8, 0.95359
514.0, 0.95325
514.2, 0.95273
514.4, 0.95161
514.6, 0.95164
514.8, 0.95103
515.0, 0.9515
515.2, 0.95185
515.4, 0.95107
515.6, 0.9513
515.8, 0.95093
516.0, 0.95027
516.2, 0.95017
516.4, 0.94933
516.6, 0.94912
516.8, 0.94871
517.0, 0.94792
517.2, 0.94748
517.4, 0.94774
517.6, 0.9479
517.8, 0.94754
518.0, 0.94825
518.2, 0.94967
518.4, 0.95074
518.6, 0.95215
518.8, 0.95322
519.0, 0.95395
519.2, 0.95503
519.4, 0.95588
519.6, 0.95643
519.8, 0.95677
520.0, 0.95697
520.2, 0.95629
520.4, 0.95514
520.6, 0.95406
520.8, 0.95239
521.0, 0.94785
521.2, 0.94237
521.4, 0.93327
521.6, 0.91844
521.8, 0.89276
522.0, 0.84409
522.2, 0.761
522.4, 0.64016
522.6, 0.49358
522.8, 0.34716
523.0, 0.22631
523.2, 0.14319
523.4, 0.08255
523.6, 0.04813
523.8, 0.02852
524.0, 0.01721
524.2, 0.01059
524.4, 0.00669
524.6, 0.00428
524.8, 0.0027
525.0, 0.00177
525.2, 0.0012
525.4, 8.2774e-04
525.6, 5.7578e-04
525.8, 4.0842e-04
526.0, 2.8672e-04
526.2, 2.0154e-04
526.4, 1.4817e-04
526.6, 1.0859e-04
526.8, 8.3289e-05
527.0, 6.302e-05
527.2, 4.6679e-05
527.4, 3.4806e-05
527.6, 2.781e-05
527.8, 2.1492e-05
528.0, 1.6787e-05
528.2, 1.3696e-05
528.4, 1.0882e-05
528.6, 9.292e-06
528.8, 7.1989e-06
529.0, 6.1306e-06
529.2, 4.8963e-06
529.4, 4.1131e-06
529.6, 3.5368e-06
529.8, 2.9378e-06
530.0, 2.1381e-06
530.2, 2.2454e-06
530.4, 1.7985e-06
530.6, 1.4596e-06
530.8, 1.1943e-06
531.0, 1.3818e-06
531.2, 1.2221e-06
531.4, 1.148e-06
531.6, 9.6203e-07
531.8, 9.3262e-07
532.0, 6.537e-07
532.2, 6.3694e-07
532.4, 4.3917e-07
532.6, 7.4966e-07
532.8, 6.6169e-07
533.0, 5.0984e-07
533.2, 4.8292e-07
533.4, 5.7896e-07
533.6, 3.4169e-07
533.8, 5.149e-07
534.0, 4.7369e-07
534.2, 2.8954e-07
534.4, 5.5347e-07
534.6, 5.1727e-07
534.8, 5.379e-07
535.0, 4.1956e-07
535.2, 4.7445e-07
535.4, 5.5385e-07
535.6, 5.5419e-07
535.8, 4.6405e-07
536.0, 3.9669e-07
536.2, 4.4973e-07
536.4, 4.4961e-07
536.6, 4.787e-07
536.8, 5.5433e-07
537.0, 5.9926e-07
537.2, 5.4526e-07
537.4, 4.5898e-07
537.6, 4.6276e-07
537.8, 3.3171e-07
538.0, 4.4872e-07
538.2, 2.9058e-07
538.4, 2.2959e-07
538.6, 2.9901e-07
538.8, 3.8071e-07
539.0, 3.8369e-07
539.2, 3.867e-07
539.4, 3.8973e-07
539.6, 3.9278e-07
539.8, 3.9586e-07
540.0, 3.9896e-07
540.2, 3.9923e-07
540.4, 3.8308e-07
540.6, 3.6758e-07
540.8, 3.5271e-07
541.0, 3.3844e-07
541.2, 3.2475e-07
541.4, 3.1161e-07
541.6, 2.99e-07
541.8, 2.8691e-07
542.0, 2.753e-07
542.2, 2.6416e-07
542.4, 2.5348e-07
542.6, 2.4322e-07
542.8, 2.3338e-07
543.0, 2.2394e-07
543.2, 2.1488e-07
543.4, 2.0619e-07
543.6, 1.9784e-07
543.8, 1.9269e-07
544.0, 1.9012e-07
544.2, 1.8759e-07
544.4, 1.8509e-07
544.6, 1.8262e-07
544.8, 1.8019e-07
545.0, 1.7779e-07
545.2, 1.7542e-07
545.4, 1.7308e-07
545.6, 1.7077e-07
545.8, 1.685e-07
546.0, 1.6625e-07
546.2, 1.6403e-07
546.4, 1.6185e-07
546.6, 1.5969e-07
546.8, 1.5756e-07
547.0, 1.5546e-07
547.2, 1.5339e-07
547.4, 1.5134e-07
547.6, 1.4933e-07
547.8, 1.4734e-07
548.0, 1.4537e-07
548.2, 1.4343e-07
548.4, 1.4152e-07
548.6, 1.3972e-07
548.8, 1.4064e-07
549.0, 1.4158e-07
549.2, 1.4251e-07
549.4, 1.4346e-07
549.6, 1.4441e-07
549.8, 1.4537e-07
550.0, 1.4633e-07
550.2, 1.473e-07
550.4, 1.4827e-07
550.6, 1.4926e-07
550.8, 1.5024e-07
551.0, 1.5124e-07
551.2, 1.5224e-07
551.4, 1.5325e-07
551.6, 1.5426e-07
551.8, 1.5529e-07
552.0, 1.5631e-07
552.2, 1.5735e-07
552.4, 1.5839e-07
552.6, 1.5944e-07
552.8, 1.605e-07
553.0, 1.6156e-07
553.2, 1.6263e-07
553.4, 1.6371e-07
553.6, 1.6268e-07
553.8, 1.5978e-07
554.0, 1.5694e-07
554.2, 1.5414e-07
554.4, 1.514e-07
554.6, 1.487e-07
554.8, 1.4605e-07
555.0, 1.4345e-07
555.2, 1.409e-07
555.4, 1.3839e-07
555.6, 1.3592e-07
555.8, 1.335e-07
556.0, 1.3112e-07
556.2, 1.2879e-07
556.4, 1.2649e-07
556.6, 1.2424e-07
556.8, 1.2203e-07
557.0, 1.1985e-07
557.2, 1.1772e-07
557.4, 1.1562e-07
557.6, 1.1356e-07
557.8, 1.1154e-07
558.0, 1.0955e-07
558.2, 1.076e-07
558.4, 1.057e-07
558.6, 1.0546e-07
558.8, 1.0523e-07
559.0, 1.0499e-07
559.2, 1.0475e-07
559.4, 1.0451e-07
559.6, 1.0428e-07
559.8, 1.0404e-07
560.0, 1.0381e-07
560.2, 1.0357e-07
560.4, 1.0334e-07
560.6, 1.031e-07
560.8, 1.0287e-07
561.0, 1.0264e-07
561.2, 1.0241e-07
561.4, 1.0217e-07
561.6, 1.0194e-07
561.8, 1.0171e-07
562.0, 1.0148e-07
562.2, 1.0125e-07
562.4, 1.0102e-07
562.6, 1.008e-07
562.8, 1.0057e-07
563.0, 1.0034e-07
563.2, 1.0011e-07
563.4, 1.0e-07
563.6, 1.0e-07
563.8, 1.0e-07
564.0, 1.0e-07
564.2, 1.0e-07
564.4, 1.0e-07
564.6, 1.0e-07
564.8, 1.0e-07
565.0, 1.0e-07
565.2, 1.0e-07
565.4, 1.0e-07
565.6, 1.0e-07
565.8, 1.0e-07
566.0, 1.0e-07
566.2, 1.0e-07
566.4, 1.0e-07
566.6, 1.0e-07
566.8, 1.0e-07
567.0, 1.0e-07
567.2, 1.0e-07
567.4, 1.0e-07
567.6, 1.0e-07
567.8, 1.0e-07
568.0, 1.0e-07
568.2, 1.0e-07
568.4, 1.0e-07
568.6, 1.0e-07
568.8, 1.0e-07
569.0, 1.0e-07
569.2, 1.0e-07
569.4, 1.0e-07
569.6, 1.0e-07
569.8, 1.0e-07
570.0, 1.0e-07
570.2, 1.0e-07
570.4, 1.0e-07
570.6, 1.0e-07
570.8, 1.0e-07
571.0, 1.0e-07
571.2, 1.0e-07
571.4, 1.0e-07
571.6, 1.0e-07
571.8, 1.0e-07
572.0, 1.0e-07
572.2, 1.0e-07
572.4, 1.0e-07
572.6, 1.0e-07
572.8, 1.0e-07
573.0, 1.0e-07
573.2, 1.0e-07
573.4, 1.0e-07
573.6, 1.0e-07
573.8, 1.0e-07
574.0, 1.0e-07
574.2, 1.0e-07
574.4, 1.0e-07
574.6, 1.0e-07
574.8, 1.0e-07
575.0, 1.0e-07
575.2, 1.0e-07
575.4, 1.0e-07
575.6, 1.0e-07
575.8, 1.0e-07
576.0, 1.0e-07
576.2, 1.0e-07
576.4, 1.0e-07
576.6, 1.0e-07
576.8, 1.0e-07
577.0, 1.0e-07
577.2, 1.0e-07
577.4, 1.0e-07
577.6, 1.0e-07
577.8, 1.0e-07
578.0, 1.0e-07
578.2, 1.0e-07
578.4, 1.0e-07
578.6, 1.0e-07
578.8, 1.0e-07
579.0, 1.0e-07
579.2, 1.0e-07
579.4, 1.0e-07
579.6, 1.0e-07
579.8, 1.0e-07
580.0, 1.0e-07
580.2, 1.0e-07
580.4, 1.0e-07
580.6, 1.0e-07
580.8, 1.0e-07
581.0, 1.0e-07
581.2, 1.0e-07
581.4, 1.0e-07
581.6, 1.0e-07
581.8, 1.0e-07
582.0, 1.0e-07
582.2, 1.0e-07
582.4, 1.0e-07
582.6, 1.0e-07
582.8, 1.0e-07
583.0, 1.0e-07
583.2, 1.0e-07
583.4, 1.0e-07
583.6, 1.0e-07
583.8, 1.0e-07
584.0, 1.0e-07
584.2, 1.0e-07
584.4, 1.0e-07
584.6, 1.0e-07
584.8, 1.0e-07
585.0, 1.0e-07
585.2, 1.0e-07
585.4, 1.0e-07
585.6, 1.0e-07
585.8, 1.0e-07
586.0, 1.0e-07
586.2, 1.0e-07
586.4, 1.0e-07
586.6, 1.0e-07
586.8, 1.0e-07
587.0, 1.0e-07
587.2, 1.0e-07
587.4, 1.0e-07
587.6, 1.0e-07
587.8, 1.0e-07
588.0, 1.0e-07
588.2, 1.0e-07
588.4, 1.0e-07
588.6, 1.0e-07
588.8, 1.0e-07
589.0, 1.0e-07
589.2, 1.0e-07
589.4, 1.0e-07
589.6, 1.0e-07
589.8, 1.0e-07
590.0, 1.0e-07
590.2, 1.0e-07
590.4, 1.0e-07
590.6, 1.0e-07
590.8, 1.0e-07
591.0, 1.0e-07
591.2, 1.0e-07
591.4, 1.0e-07
591.6, 1.0e-07
591.8, 1.0e-07
592.0, 1.0e-07
592.2, 1.0e-07
592.4, 1.0e-07
592.6, 1.0e-07
592.8, 1.0e-07
593.0, 1.0e-07
593.2, 1.0e-07
593.4, 1.0e-07
593.6, 1.0e-07
593.8, 1.0e-07
594.0, 1.0e-07
594.2, 1.0e-07
594.4, 1.0e-07
594.6, 1.0e-07
594.8, 1.0e-07
595.0, 1.0e-07
595.2, 1.0e-07
595.4, 1.0e-07
595.6, 1.0e-07
595.8, 1.0e-07
596.0, 1.0e-07
596.2, 1.0e-07
596.4, 1.0e-07
596.6, 1.0e-07
596.8, 1.0e-07
597.0, 1.0e-07
597.2, 1.0e-07
597.4, 1.0e-07
597.6, 1.0e-07
597.8, 1.0e-07
598.0, 1.0e-07
598.2, 1.0e-07
598.4, 1.0e-07
598.6, 1.0e-07
598.8, 1.0e-07
599.0, 1.0e-07
599.2, 1.0e-07
599.4, 1.0e-07
599.6, 1.0175e-07
599.8, 1.0365e-07
600.0, 1.0558e-07
600.2, 1.0756e-07
600.4, 1.0957e-07
600.6, 1.1161e-07
600.8, 1.137e-07
601.0, 1.1582e-07
601.2, 1.1799e-07
601.4, 1.2019e-07
601.6, 1.2244e-07
601.8, 1.2472e-07
602.0, 1.3053e-07
602.2, 1.3752e-07
602.4, 1.4489e-07
602.6, 1.5266e-07
602.8, 1.6084e-07
603.0, 1.6946e-07
603.2, 1.7855e-07
603.4, 1.8812e-07
603.6, 1.982e-07
603.8, 1.924e-07
604.0, 1.7819e-07
604.2, 1.6502e-07
604.4, 1.5283e-07
604.6, 1.4153e-07
604.8, 1.3108e-07
605.0, 1.2139e-07
605.2, 1.1242e-07
605.4, 1.0411e-07
605.6, 1.0342e-07
605.8, 1.1101e-07
606.0, 1.1916e-07
606.2, 1.279e-07
606.4, 1.3729e-07
606.6, 1.4736e-07
606.8, 1.5818e-07
607.0, 1.6979e-07
607.2, 1.8225e-07
607.4, 1.8822e-07
607.6, 1.7876e-07
607.8, 1.6977e-07
608.0, 1.6123e-07
608.2, 1.5312e-07
608.4, 1.4084e-07
608.6, 1.291e-07
608.8, 1.1834e-07
609.0, 1.0935e-07
609.2, 1.1008e-07
609.4, 1.1082e-07
609.6, 1.1157e-07
609.8, 1.1232e-07
610.0, 1.1307e-07
610.2, 1.1383e-07
610.4, 1.1459e-07
610.6, 1.1536e-07
610.8, 1.1613e-07
611.0, 1.1691e-07
611.2, 1.177e-07
611.4, 1.1849e-07
611.6, 1.1928e-07
611.8, 1.2008e-07
612.0, 1.2089e-07
612.2, 1.217e-07
612.4, 1.2252e-07
612.6, 1.2334e-07
612.8, 1.2394e-07
613.0, 1.2444e-07
613.2, 1.2493e-07
613.4, 1.2543e-07
613.6, 1.2593e-07
613.8, 1.2644e-07
614.0, 1.2694e-07
614.2, 1.2745e-07
614.4, 1.2796e-07
614.6, 1.2847e-07
614.8, 1.2898e-07
615.0, 1.295e-07
615.2, 1.3002e-07
615.4, 1.3054e-07
615.6, 1.3106e-07
615.8, 1.3158e-07
616.0, 1.3211e-07
616.2, 1.3264e-07
616.4, 1.3308e-07
616.6, 1.3328e-07
616.8, 1.3348e-07
617.0, 1.3369e-07
617.2, 1.3389e-07
617.4, 1.341e-07
617.6, 1.343e-07
617.8, 1.3451e-07
618.0, 1.3471e-07
618.2, 1.3492e-07
618.4, 1.3512e-07
618.6, 1.3533e-07
618.8, 1.3554e-07
619.0, 1.3574e-07
619.2, 1.3595e-07
619.4, 1.3616e-07
619.6, 1.3637e-07
619.8, 1.3657e-07
620.0, 1.3678e-07
620.2, 1.3512e-07
620.4, 1.3319e-07
620.6, 1.313e-07
620.8, 1.2943e-07
621.0, 1.2759e-07
621.2, 1.2577e-07
621.4, 1.2398e-07
621.6, 1.2222e-07
621.8, 1.2048e-07
622.0, 1.1877e-07
622.2, 1.1708e-07
622.4, 1.1541e-07
622.6, 1.1377e-07
622.8, 1.1215e-07
623.0, 1.1055e-07
623.2, 1.0898e-07
623.4, 1.0743e-07
623.6, 1.059e-07
623.8, 1.0499e-07
624.0, 1.0471e-07
624.2, 1.0442e-07
624.4, 1.0414e-07
624.6, 1.0385e-07
624.8, 1.0357e-07
625.0, 1.0329e-07
625.2, 1.0301e-07
625.4, 1.0273e-07
625.6, 1.0245e-07
625.8, 1.0217e-07
626.0, 1.0189e-07
626.2, 1.0161e-07
626.4, 1.0134e-07
626.6, 1.0106e-07
626.8, 1.0079e-07
627.0, 1.0051e-07
627.2, 1.0024e-07
627.4, 1.0e-07
627.6, 1.0e-07
627.8, 1.0e-07
628.0, 1.0e-07
628.2, 1.0e-07
628.4, 1.0e-07
628.6, 1.0e-07
628.8, 1.0e-07
629.0, 1.0e-07
629.2, 1.0e-07
629.4, 1.0e-07
629.6, 1.0e-07
629.8, 1.0e-07
630.0, 1.0e-07
630.2, 1.0e-07
630.4, 1.0e-07
630.6, 1.0e-07
630.8, 1.0e-07
631.0, 1.0e-07
631.2, 1.0e-07
631.4, 1.0e-07
631.6, 1.0e-07
631.8, 1.0e-07
632.0, 1.0e-07
632.2, 1.0e-07
632.4, 1.0e-07
632.6, 1.0e-07
632.8, 1.0e-07
633.0, 1.0e-07
633.2, 1.0e-07
633.4, 1.0e-07
633.6, 1.0e-07
633.8, 1.0e-07
634.0, 1.0e-07
634.2, 1.0e-07
634.4, 1.0e-07
634.6, 1.0e-07
634.8, 1.0e-07
635.0, 1.0e-07
635.2, 1.0e-07
635.4, 1.0e-07
635.6, 1.0e-07
635.8, 1.0e-07
636.0, 1.0e-07
636.2, 1.0e-07
636.4, 1.0e-07
636.6, 1.0e-07
636.8, 1.0e-07
637.0, 1.0e-07
637.2, 1.0e-07
637.4, 1.0e-07
637.6, 1.0e-07
637.8, 1.0e-07
638.0, 1.0e-07
638.2, 1.0e-07
638.4, 1.0e-07
638.6, 1.0e-07
638.8, 1.0e-07
639.0, 1.0e-07
639.2, 1.0e-07
639.4, 1.0e-07
639.6, 1.0e-07
639.8, 1.0e-07
640.0, 1.0e-07
640.2, 1.0e-07
640.4, 1.0e-07
640.6, 1.0e-07
640.8, 1.0e-07
641.0, 1.0e-07
641.2, 1.0e-07
641.4, 1.0e-07
641.6, 1.0e-07
641.8, 1.0e-07
642.0, 1.0e-07
642.2, 1.0e-07
642.4, 1.0e-07
642.6, 1.0e-07
642.8, 1.0e-07
643.0, 1.0e-07
643.2, 1.0e-07
643.4, 1.0e-07
643.6, 1.0e-07
643.8, 1.0e-07
644.0, 1.0e-07
644.2, 1.0e-07
644.4, 1.0e-07
644.6, 1.0e-07
644.8, 1.0e-07
645.0, 1.0e-07
645.2, 1.0e-07
645.4, 1.0e-07
645.6, 1.0e-07
645.8, 1.0e-07
646.0, 1.0e-07
646.2, 1.0e-07
646.4, 1.0e-07
646.6, 1.0e-07
646.8, 1.0e-07
647.0, 1.0e-07
647.2, 1.0e-07
647.4, 1.0e-07
647.6, 1.0e-07
647.8, 1.0e-07
648.0, 1.0e-07
648.2, 1.0e-07
648.4, 1.0e-07
648.6, 1.0e-07
648.8, 1.0e-07
649.0, 1.0e-07
649.2, 1.0e-07
649.4, 1.0e-07
649.6, 1.0e-07
649.8, 1.0e-07
650.0, 1.0e-07
650.2, 1.0e-07
650.4, 1.0e-07
650.6, 1.0e-07
650.8, 1.0e-07
651.0, 1.0e-07
651.2, 1.0e-07
651.4, 1.0e-07
651.6, 1.0e-07
651.8, 1.0e-07
652.0, 1.0e-07
652.2, 1.0e-07
652.4, 1.0e-07
652.6, 1.0e-07
652.8, 1.0e-07
653.0, 1.0e-07
653.2, 1.0e-07
653.4, 1.0e-07
653.6, 1.0e-07
653.8, 1.0e-07
654.0, 1.0e-07
654.2, 1.0e-07
654.4, 1.0e-07
654.6, 1.0e-07
654.8, 1.0e-07
655.0, 1.0e-07
655.2, 1.0e-07
655.4, 1.0e-07
655.6, 1.0e-07
655.8, 1.0e-07
656.0, 1.0e-07
656.2, 1.0e-07
656.4, 1.0e-07
656.6, 1.0e-07
656.8, 1.0e-07
657.0, 1.0e-07
657.2, 1.0e-07
657.4, 1.0e-07
657.6, 1.0e-07
657.8, 1.0e-07
658.0, 1.0e-07
658.2, 1.0e-07
658.4, 1.0e-07
658.6, 1.0e-07
658.8, 1.0e-07
659.0, 1.0e-07
659.2, 1.0e-07
659.4, 1.0e-07
659.6, 1.0e-07
659.8, 1.0e-07
660.0, 1.0e-07
660.2, 1.0e-07
660.4, 1.0e-07
660.6, 1.0e-07
660.8, 1.0e-07
661.0, 1.0e-07
661.2, 1.0e-07
661.4, 1.0e-07
661.6, 1.0e-07
661.8, 1.0e-07
662.0, 1.0e-07
662.2, 1.0e-07
662.4, 1.0e-07
662.6, 1.0e-07
662.8, 1.0e-07
663.0, 1.0e-07
663.2, 1.0e-07
663.4, 1.0e-07
663.6, 1.0e-07
663.8, 1.0e-07
664.0, 1.0e-07
664.2, 1.0e-07
664.4, 1.0e-07
664.6, 1.0e-07
664.8, 1.0e-07
665.0, 1.0e-07
665.2, 1.0e-07
665.4, 1.0e-07
665.6, 1.0e-07
665.8, 1.0e-07
666.0, 1.0e-07
666.2, 1.0e-07
666.4, 1.0e-07
666.6, 1.0e-07
666.8, 1.0e-07
667.0, 1.0e-07
667.2, 1.0e-07
667.4, 1.0e-07
667.6, 1.0e-07
667.8, 1.0e-07
668.0, 1.0e-07
668.2, 1.0e-07
668.4, 1.0e-07
668.6, 1.0e-07
668.8, 1.0e-07
669.0, 1.0e-07
669.2, 1.0e-07
669.4, 1.0e-07
669.6, 1.0e-07
669.8, 1.0e-07
670.0, 1.0e-07
670.2, 1.0e-07
670.4, 1.0e-07
670.6, 1.0e-07
670.8, 1.0e-07
671.0, 1.0e-07
671.2, 1.0e-07
671.4, 1.0e-07
671.6, 1.0e-07
671.8, 1.0e-07
672.0, 1.0e-07
672.2, 1.0e-07
672.4, 1.0e-07
672.6, 1.0e-07
672.8, 1.0e-07
673.0, 1.0e-07
673.2, 1.0e-07
673.4, 1.0e-07
673.6, 1.0e-07
673.8, 1.0e-07
674.0, 1.0e-07
674.2, 1.0e-07
674.4, 1.0e-07
674.6, 1.0e-07
674.8, 1.0e-07
675.0, 1.0e-07
675.2, 1.0e-07
675.4, 1.0e-07
675.6, 1.0e-07
675.8, 1.0e-07
676.0, 1.0e-07
676.2, 1.0e-07
676.4, 1.0e-07
676.6, 1.0e-07
676.8, 1.0e-07
677.0, 1.0e-07
677.2, 1.0e-07
677.4, 1.0e-07
677.6, 1.0e-07
677.8, 1.0e-07
678.0, 1.0e-07
678.2, 1.0e-07
678.4, 1.0e-07
678.6, 1.0e-07
678.8, 1.0e-07
679.0, 1.0e-07
679.2, 1.0e-07
679.4, 1.0e-07
679.6, 1.0e-07
679.8, 1.0e-07
680.0, 1.0e-07
680.2, 1.0e-07
680.4, 1.0e-07
680.6, 1.0e-07
680.8, 1.0e-07
681.0, 1.0e-07
681.2, 1.0e-07
681.4, 1.0e-07
681.6, 1.0425e-07
681.8, 1.1109e-07
682.0, 1.1838e-07
682.2, 1.2615e-07
682.4, 1.3442e-07
682.6, 1.4324e-07
682.8, 1.5264e-07
683.0, 1.6265e-07
683.2, 1.7332e-07
683.4, 1.847e-07
683.6, 1.9681e-07
683.8, 2.0973e-07
684.0, 2.2349e-07
684.2, 2.3815e-07
684.4, 2.5377e-07
684.6, 2.7042e-07
684.8, 2.8817e-07
685.0, 3.0707e-07
685.2, 3.1338e-07
685.4, 2.9407e-07
685.6, 2.7596e-07
685.8, 2.5896e-07
686.0, 2.43e-07
686.2, 2.2804e-07
686.4, 2.1399e-07
686.6, 2.0081e-07
686.8, 1.8844e-07
687.0, 1.7683e-07
687.2, 1.6593e-07
687.4, 1.5571e-07
687.6, 1.4612e-07
687.8, 1.3712e-07
688.0, 1.2867e-07
688.2, 1.2075e-07
688.4, 1.1331e-07
688.6, 1.0633e-07
688.8, 1.0048e-07
689.0, 1.1537e-07
689.2, 1.3246e-07
689.4, 1.5207e-07
689.6, 1.746e-07
689.8, 2.0046e-07
690.0, 2.3015e-07
690.2, 2.6424e-07
690.4, 3.0338e-07
690.6, 3.4831e-07
690.8, 3.999e-07
691.0, 4.5913e-07
691.2, 5.2713e-07
691.4, 6.0521e-07
691.6, 6.9485e-07
691.8, 7.9777e-07
692.0, 9.1593e-07
692.2, 1.0516e-06
692.4, 1.2073e-06
692.6, 1.1471e-06
692.8, 1.0179e-06
693.0, 9.0321e-07
693.2, 8.0148e-07
693.4, 7.1121e-07
693.6, 6.311e-07
693.8, 5.6002e-07
694.0, 4.9694e-07
694.2, 4.4097e-07
694.4, 3.913e-07
694.6, 3.4723e-07
694.8, 3.0812e-07
695.0, 2.7342e-07
695.2, 2.4262e-07
695.4, 2.1529e-07
695.6, 1.9105e-07
695.8, 1.6953e-07
696.0, 1.5043e-07
696.2, 1.3961e-07
696.4, 1.3702e-07
696.6, 1.3448e-07
696.8, 1.3199e-07
697.0, 1.2954e-07
697.2, 1.2714e-07
697.4, 1.2478e-07
697.6, 1.2247e-07
697.8, 1.202e-07
698.0, 1.1797e-07
698.2, 1.1578e-07
698.4, 1.1364e-07
698.6, 1.1153e-07
698.8, 1.0946e-07
699.0, 1.0743e-07
699.2, 1.0544e-07
699.4, 1.0348e-07
699.6, 1.0157e-07
699.8, 1.0e-07
700.0, 1.0e-07
700.2, 1.0e-07
700.4, 1.0e-07
700.6, 1.0e-07
700.8, 1.0e-07
701.0, 1.0e-07
701.2, 1.0e-07
701.4, 1.0e-07
701.6, 1.0e-07
701.8, 1.0e-07
702.0, 1.0e-07
702.2, 1.0e-07
702.4, 1.0e-07
702.6, 1.0e-07
702.8, 1.0e-07
703.0, 1.0e-07
703.2, 1.0e-07
703.4, 1.0e-07
703.6, 1.1432e-07
703.8, 1.3264e-07
704.0, 1.539e-07
704.2, 1.7858e-07
704.4, 2.072e-07
704.6, 2.4041e-07
704.8, 2.7895e-07
705.0, 3.2367e-07
705.2, 3.7555e-07
705.4, 4.3575e-07
705.6, 5.056e-07
705.8, 5.8665e-07
706.0, 6.8069e-07
706.2, 7.898e-07
706.4, 9.1641e-07
706.6, 1.0633e-06
706.8, 1.2338e-06
707.0, 1.4315e-06
707.2, 1.4163e-06
707.4, 1.2835e-06
707.6, 1.1632e-06
707.8, 1.0541e-06
708.0, 9.5528e-07
708.2, 8.6572e-07
708.4, 7.8456e-07
708.6, 7.11e-07
708.8, 6.4435e-07
709.0, 5.8394e-07
709.2, 5.2919e-07
709.4, 4.7958e-07
709.6, 4.3462e-07
709.8, 3.9387e-07
710.0, 3.5694e-07
710.2, 3.2348e-07
710.4, 2.9315e-07
710.6, 2.6567e-07
710.8, 2.5024e-07
711.0, 2.4975e-07
711.2, 2.4926e-07
711.4, 2.4878e-07
711.6, 2.483e-07
711.8, 2.4781e-07
712.0, 2.4733e-07
712.2, 2.4685e-07
712.4, 2.4637e-07
712.6, 2.4589e-07
712.8, 2.4542e-07
713.0, 2.4494e-07
713.2, 2.4446e-07
713.4, 2.4399e-07
713.6, 2.4351e-07
713.8, 2.4304e-07
714.0, 2.4257e-07
714.2, 2.421e-07
714.4, 2.4299e-07
714.6, 2.5123e-07
714.8, 2.5974e-07
715.0, 2.6854e-07
715.2, 2.7764e-07
715.4, 2.8705e-07
715.6, 2.9677e-07
715.8, 3.0683e-07
716.0, 3.1723e-07
716.2, 3.2797e-07
716.4, 3.3909e-07
716.6, 3.5058e-07
716.8, 3.6246e-07
717.0, 3.7474e-07
717.2, 3.8743e-07
717.4, 4.0056e-07
717.6, 4.1413e-07
717.8, 4.2817e-07
718.0, 4.4267e-07
718.2, 4.786e-07
718.4, 5.1905e-07
718.6, 5.6292e-07
718.8, 6.105e-07
719.0, 6.621e-07
719.2, 7.1806e-07
719.4, 7.7875e-07
719.6, 8.4457e-07
719.8, 9.1595e-07
720.0, 9.9337e-07
720.2, 1.0773e-06
720.4, 1.1684e-06
720.6, 1.2671e-06
720.8, 1.3742e-06
721.0, 1.4904e-06
721.2, 1.6164e-06
721.4, 1.753e-06
721.6, 1.9011e-06
721.8, 1.932e-06
722.0, 1.9155e-06
722.2, 1.8992e-06
722.4, 1.883e-06
722.6, 1.8669e-06
722.8, 1.851e-06
723.0, 1.8352e-06
723.2, 1.8195e-06
723.4, 1.804e-06
723.6, 1.7886e-06
723.8, 1.7734e-06
724.0, 1.7582e-06
724.2, 1.7432e-06
724.4, 1.7284e-06
724.6, 1.7136e-06
724.8, 1.699e-06
725.0, 1.6845e-06
725.2, 1.6702e-06
725.4, 1.536e-06
725.6, 1.3161e-06
725.8, 1.1277e-06
726.0, 9.6623e-07
726.2, 8.279e-07
726.4, 7.0937e-07
726.6, 6.0782e-07
726.8, 5.208e-07
727.0, 4.4624e-07
727.2, 3.8235e-07
727.4, 3.2761e-07
727.6, 2.8071e-07
727.8, 2.4052e-07
728.0, 2.0608e-07
728.2, 1.7658e-07
728.4, 1.513e-07
728.6, 1.2964e-07
728.8, 1.1108e-07
729.0, 1.001e-07
729.2, 1.0042e-07
729.4, 1.0073e-07
729.6, 1.0105e-07
729.8, 1.0137e-07
730.0, 1.0169e-07
730.2, 1.0201e-07
730.4, 1.0233e-07
730.6, 1.0265e-07
730.8, 1.0298e-07
731.0, 1.033e-07
731.2, 1.0363e-07
731.4, 1.0395e-07
731.6, 1.0428e-07
731.8, 1.0461e-07
732.0, 1.0494e-07
732.2, 1.0527e-07
732.4, 1.056e-07
732.6, 1.0607e-07
732.8, 1.0742e-07
733.0, 1.0878e-07
733.2, 1.1016e-07
733.4, 1.1156e-07
733.6, 1.1298e-07
733.8, 1.1441e-07
734.0, 1.1586e-07
734.2, 1.1734e-07
734.4, 1.1882e-07
734.6, 1.2033e-07
734.8, 1.2186e-07
735.0, 1.2341e-07
735.2, 1.2498e-07
735.4, 1.2656e-07
735.6, 1.2817e-07
735.8, 1.298e-07
736.0, 1.3145e-07
736.2, 1.3312e-07
736.4, 1.5802e-07
736.6, 1.8882e-07
736.8, 2.2563e-07
737.0, 2.6961e-07
737.2, 3.2217e-07
737.4, 3.8497e-07
737.6, 4.6002e-07
737.8, 5.4969e-07
738.0, 6.5685e-07
738.2, 7.849e-07
738.4, 8.579e-07
738.6, 8.9741e-07
738.8, 9.3874e-07
739.0, 9.8197e-07
739.2, 1.0272e-06
739.4, 1.0968e-06
739.6, 1.1926e-06
739.8, 1.2968e-06
740.0, 1.4101e-06
740.2, 1.5333e-06
740.4, 1.6673e-06
740.6, 1.813e-06
740.8, 1.9714e-06
741.0, 2.1437e-06
741.2, 2.331e-06
741.4, 2.5346e-06
741.6, 2.7561e-06
741.8, 2.9969e-06
742.0, 3.2588e-06
742.2, 3.5435e-06
742.4, 3.8531e-06
742.6, 4.1898e-06
742.8, 4.5559e-06
743.0, 4.7361e-06
743.2, 4.373e-06
743.4, 4.0378e-06
743.6, 3.7283e-06
743.8, 3.4425e-06
744.0, 3.1786e-06
744.2, 2.9349e-06
744.4, 2.7099e-06
744.6, 2.5022e-06
744.8, 2.3103e-06
745.0, 2.1332e-06
745.2, 1.9697e-06
745.4, 1.8187e-06
745.6, 1.6793e-06
745.8, 1.5506e-06
746.0, 1.4317e-06
746.2, 1.3219e-06
746.4, 1.2206e-06
746.6, 1.1274e-06
746.8, 1.0561e-06
747.0, 9.8925e-07
747.2, 9.2665e-07
747.4, 8.68e-07
747.6, 8.1307e-07
747.8, 7.6162e-07
748.0, 7.1342e-07
748.2, 6.6827e-07
748.4, 6.2598e-07
748.6, 5.8637e-07
748.8, 5.4926e-07
749.0, 5.145e-07
749.2, 4.8194e-07
749.4, 4.5144e-07
749.6, 4.2287e-07
749.8, 3.9611e-07
750.0, 3.7105e-07
750.2, 3.4756e-07
750.4, 3.3429e-07
750.6, 3.2386e-07
750.8, 3.1375e-07
751.0, 3.0396e-07
751.2, 2.9447e-07
751.4, 2.8528e-07
751.6, 2.7637e-07
751.8, 2.6775e-07
752.0, 2.5939e-07
752.2, 2.513e-07
752.4, 2.4345e-07
752.6, 2.3586e-07
752.8, 2.2849e-07
753.0, 2.2136e-07
753.2, 2.1445e-07
753.4, 2.0776e-07
753.6, 2.0128e-07
753.8, 1.9499e-07
754.0, 1.9695e-07
754.2, 2.0568e-07
754.4, 2.148e-07
754.6, 2.2433e-07
754.8, 2.3428e-07
755.0, 2.4467e-07
755.2, 2.5552e-07
755.4, 2.6685e-07
755.6, 2.7868e-07
755.8, 2.9104e-07
756.0, 3.0395e-07
756.2, 3.1743e-07
756.4, 3.315e-07
756.6, 3.4621e-07
756.8, 3.6156e-07
757.0, 3.7759e-07
757.2, 3.9434e-07
757.4, 4.1183e-07
757.6, 4.3463e-07
757.8, 4.6816e-07
758.0, 5.0426e-07
758.2, 5.4316e-07
758.4, 5.8505e-07
758.6, 6.3018e-07
758.8, 6.7878e-07
759.0, 7.3114e-07
759.2, 7.8753e-07
759.4, 8.4828e-07
759.6, 9.137e-07
759.8, 9.8418e-07
760.0, 1.0601e-06
760.2, 1.1419e-06
760.4, 1.2299e-06
760.6, 1.3248e-06
760.8, 1.427e-06
761.0, 1.537e-06
761.2, 1.6561e-06
761.4, 1.7879e-06
761.6, 1.9301e-06
761.8, 2.0837e-06
762.0, 2.2496e-06
762.2, 2.4286e-06
762.4, 2.6218e-06
762.6, 2.8305e-06
762.8, 3.0557e-06
763.0, 3.2989e-06
763.2, 3.5614e-06
763.4, 3.8448e-06
763.6, 4.1508e-06
763.8, 4.4811e-06
764.0, 4.8377e-06
764.2, 5.2226e-06
764.4, 5.6382e-06
764.6, 6.0869e-06
764.8, 6.5713e-06
765.0, 6.3773e-06
765.2, 6.1396e-06
765.4, 5.9107e-06
765.6, 5.6904e-06
765.8, 5.4783e-06
766.0, 5.2741e-06
766.2, 5.0775e-06
766.4, 4.8882e-06
766.6, 4.706e-06
766.8, 4.5306e-06
767.0, 4.3617e-06
767.2, 4.1991e-06
767.4, 4.0426e-06
767.6, 3.8919e-06
767.8, 3.7468e-06
768.0, 3.6071e-06
768.2, 3.4727e-06
768.4, 3.3432e-06
768.6, 3.1767e-06
768.8, 3.0045e-06
769.0, 2.8417e-06
769.2, 2.6877e-06
769.4, 2.5421e-06
769.6, 2.4043e-06
769.8, 2.274e-06
770.0, 2.1508e-06
770.2, 2.0342e-06
770.4, 1.924e-06
770.6, 1.8197e-06
770.8, 1.7211e-06
771.0, 1.6279e-06
771.2, 1.5397e-06
771.4, 1.4562e-06
771.6, 1.3773e-06
771.8, 1.3027e-06
772.0, 1.2321e-06
772.2, 1.1862e-06
772.4, 1.1577e-06
772.6, 1.1299e-06
772.8, 1.1028e-06
773.0, 1.0763e-06
773.2, 1.0505e-06
773.4, 1.0253e-06
773.6, 1.0007e-06
773.8, 9.7663e-07
774.0, 9.5319e-07
774.2, 9.3031e-07
774.4, 9.0797e-07
774.6, 8.8618e-07
774.8, 8.649e-07
775.0, 8.4414e-07
775.2, 8.2388e-07
775.4, 8.041e-07
775.6, 7.848e-07
775.8, 7.6954e-07
776.0, 7.6009e-07
776.2, 7.5076e-07
776.4, 7.4154e-07
776.6, 7.3244e-07
776.8, 7.2345e-07
777.0, 7.1456e-07
777.2, 7.0579e-07
777.4, 6.9713e-07
777.6, 6.8857e-07
777.8, 6.8012e-07
778.0, 6.7177e-07
778.2, 6.6352e-07
778.4, 6.5537e-07
778.6, 6.4733e-07
778.8, 6.3938e-07
779.0, 6.3153e-07
779.2, 6.2378e-07
779.4, 6.214e-07
779.6, 6.3644e-07
779.8, 6.5185e-07
780.0, 6.6763e-07
780.2, 6.838e-07
780.4, 7.0035e-07
780.6, 7.1731e-07
780.8, 7.3467e-07
781.0, 7.5246e-07
781.2, 7.7068e-07
781.4, 7.8934e-07
781.6, 8.0845e-07
781.8, 8.2802e-07
782.0, 8.4807e-07
782.2, 8.686e-07
782.4, 8.8963e-07
782.6, 9.1117e-07
782.8, 9.3323e-07
783.0, 9.5928e-07
783.2, 1.0227e-06
783.4, 1.0904e-06
783.6, 1.1625e-06
783.8, 1.2394e-06
784.0, 1.3214e-06
784.2, 1.4088e-06
784.4, 1.502e-06
784.6, 1.6014e-06
784.8, 1.7074e-06
785.0, 1.8203e-06
785.2, 1.9407e-06
785.4, 2.0691e-06
785.6, 2.206e-06
785.8, 2.3519e-06
786.0, 2.5075e-06
786.2, 2.6734e-06
786.4, 2.8502e-06
786.6, 3.0388e-06
786.8, 3.0818e-06
787.0, 3.1164e-06
787.2, 3.1513e-06
787.4, 3.1866e-06
787.6, 3.2224e-06
787.8, 3.2585e-06
788.0, 3.295e-06
788.2, 3.332e-06
788.4, 3.3693e-06
788.6, 3.4071e-06
788.8, 3.4453e-06
789.0, 3.4839e-06
789.2, 3.523e-06
789.4, 3.5625e-06
789.6, 3.6024e-06
789.8, 3.6428e-06
790.0, 3.6836e-06
790.2, 3.7249e-06
790.4, 3.6018e-06
790.6, 3.4486e-06
790.8, 3.302e-06
791.0, 3.1616e-06
791.2, 3.0271e-06
791.4, 2.8984e-06
791.6, 2.7752e-06
791.8, 2.6571e-06
792.0, 2.5442e-06
792.2, 2.436e-06
792.4, 2.3324e-06
792.6, 2.2332e-06
792.8, 2.1383e-06
793.0, 2.0473e-06
793.2, 1.9603e-06
793.4, 1.8769e-06
793.6, 1.7971e-06
793.8, 1.7207e-06
794.0, 1.7231e-06
794.2, 1.7591e-06
794.4, 1.7957e-06
794.6, 1.8332e-06
794.8, 1.8714e-06
795.0, 1.9105e-06
795.2, 1.9503e-06
795.4, 1.9604e-06
795.6, 1.9472e-06
795.8, 1.9342e-06
796.0, 1.9212e-06
796.2, 1.9083e-06
796.4, 1.8955e-06
796.6, 1.8827e-06
796.8, 1.8701e-06
797.0, 1.8576e-06
797.2, 1.8451e-06
797.4, 1.8327e-06
797.6, 1.8533e-06
797.8, 1.8932e-06
798.0, 1.9339e-06
798.2, 1.9755e-06
798.4, 2.018e-06
798.6, 2.0614e-06
798.8, 2.1058e-06
799.0, 2.1511e-06
799.2, 2.1974e-06
799.4, 2.2446e-06
799.6, 2.2929e-06
799.8, 2.3423e-06
800.0, 2.3926e-06
800.2, 2.4441e-06
800.4, 2.4967e-06
800.6, 2.5504e-06
800.8, 2.6053e-06
801.0, 2.6613e-06
801.2, 2.7693e-06
801.4, 2.9264e-06
801.6, 3.0925e-06
801.8, 3.268e-06
802.0, 3.4534e-06
802.2, 3.6494e-06
802.4, 3.8565e-06
802.6, 4.0753e-06
802.8, 4.3066e-06
803.0, 4.551e-06
803.2, 4.8092e-06
803.4, 4.9796e-06
803.6, 5.1257e-06
803.8, 5.3176e-06
804.0, 5.9471e-06
804.2, 6.389e-06
804.4, 6.1003e-06
804.6, 6.3077e-06
804.8, 6.8417e-06
805.0, 7.5453e-06
805.2, 8.1581e-06
805.4, 8.4581e-06
805.6, 8.9458e-06
805.8, 9.5563e-06
806.0, 1.0434e-05
806.2, 1.1393e-05
806.4, 1.2438e-05
806.6, 1.3034e-05
806.8, 1.3519e-05
807.0, 1.5337e-05
807.2, 1.6892e-05
807.4, 1.7844e-05
807.6, 1.9143e-05
807.8, 2.067e-05
808.0, 2.2647e-05
808.2, 2.4585e-05
808.4, 2.64e-05
808.6, 2.9565e-05
808.8, 3.3187e-05
809.0, 3.5688e-05
809.2, 3.9284e-05
809.4, 4.4242e-05
809.6, 4.8499e-05
809.8, 5.3199e-05
810.0, 5.9543e-05
810.2, 6.5733e-05
810.4, 7.1772e-05
810.6, 7.9335e-05
810.8, 8.786e-05
811.0, 9.7467e-05
811.2, 1.0772e-04
811.4, 1.1877e-04
811.6, 1.3097e-04
811.8, 1.4387e-04
812.0, 1.5659e-04
812.2, 1.6909e-04
812.4, 1.818e-04
812.6, 1.933e-04
812.8, 2.0471e-04
813.0, 2.1518e-04
813.2, 2.2218e-04
813.4, 2.2766e-04
813.6, 2.3293e-04
813.8, 2.3724e-04
814.0, 2.4005e-04
814.2, 2.3923e-04
814.4, 2.3695e-04
814.6, 2.3233e-04
814.8, 2.2818e-04
815.0, 2.2456e-04
815.2, 2.1804e-04
815.4, 2.1101e-04
815.6, 2.0418e-04
815.8, 1.9772e-04
816.0, 1.9162e-04
816.2, 1.8393e-04
816.4, 1.768e-04
816.6, 1.719e-04
816.8, 1.6611e-04
817.0, 1.5975e-04
817.2, 1.5346e-04
817.4, 1.4804e-04
817.6, 1.4458e-04
817.8, 1.4075e-04
818.0, 1.3673e-04
818.2, 1.3259e-04
818.4, 1.2909e-04
818.6, 1.268e-04
818.8, 1.2368e-04
819.0, 1.2025e-04
819.2, 1.1866e-04
819.4, 1.1662e-04
819.6, 1.1385e-04
819.8, 1.1236e-04
820.0, 1.1125e-04
820.2, 1.085e-04
820.4, 1.0718e-04
820.6, 1.0774e-04
820.8, 1.0734e-04
821.0, 1.0662e-04
821.2, 1.0562e-04
821.4, 1.0543e-04
821.6, 1.0611e-04
821.8, 1.069e-04
822.0, 1.0778e-04
822.2, 1.0897e-04
822.4, 1.1002e-04
822.6, 1.1095e-04
822.8, 1.1208e-04
823.0, 1.1344e-04
823.2, 1.1546e-04
823.4, 1.1749e-04
823.6, 1.1955e-04
823.8, 1.2229e-04
824.0, 1.2572e-04
824.2, 1.3066e-04
824.4, 1.3445e-04
824.6, 1.3763e-04
824.8, 1.4425e-04
825.0, 1.5104e-04
825.2, 1.579e-04
825.4, 1.6665e-04
825.6, 1.7637e-04
825.8, 1.8317e-04
826.0, 1.9204e-04
826.2, 2.0403e-04
826.4, 2.1627e-04
826.6, 2.2949e-04
826.8, 2.4668e-04
827.0, 2.659e-04
827.2, 2.8751e-04
827.4, 3.1176e-04
827.6, 3.3878e-04
827.8, 3.7066e-04
828.0, 4.0559e-04
828.2, 4.4385e-04
828.4, 4.9361e-04
828.6, 5.5095e-04
828.8, 6.1794e-04
829.0, 6.9727e-04
829.2, 7.9002e-04
829.4, 8.9621e-04
829.6, 0.00102
829.8, 0.00116
830.0, 0.00133
830.2, 0.00153
830.4, 0.00174
830.6, 0.00196
830.8, 0.00219
831.0, 0.00239
831.2, 0.00258
831.4, 0.00268
831.6, 0.00273
831.8, 0.00271
832.0, 0.00261
832.2, 0.00248
832.4, 0.0023
832.6, 0.00212
832.8, 0.00194
833.0, 0.00177
833.2, 0.00162
833.4, 0.00149
833.6, 0.00137
833.8, 0.00126
834.0, 0.00117
834.2, 0.00108
834.4, 0.00101
834.6, 9.5536e-04
834.8, 9.0296e-04
835.0, 8.5978e-04
835.2, 8.2015e-04
835.4, 7.849e-04
835.6, 7.5839e-04
835.8, 7.363e-04
836.0, 7.2279e-04
836.2, 7.0835e-04
836.4, 6.9244e-04
836.6, 6.8463e-04
836.8, 6.7964e-04
837.0, 6.7658e-04
837.2, 6.7496e-04
837.4, 6.7498e-04
837.6, 6.7948e-04
837.8, 6.8611e-04
838.0, 6.9812e-04
838.2, 7.1273e-04
838.4, 7.2979e-04
838.6, 7.4763e-04
838.8, 7.6788e-04
839.0, 7.9465e-04
839.2, 8.232e-04
839.4, 8.5334e-04
839.6, 8.9669e-04
839.8, 9.4123e-04
840.0, 9.845e-04
840.2, 0.00104
840.4, 0.00109
840.6, 0.00117
840.8, 0.00125
841.0, 0.00132
841.2, 0.00141
841.4, 0.0015
841.6, 0.00161
841.8, 0.00172
842.0, 0.00184
842.2, 0.00194
842.4, 0.00203
842.6, 0.00212
842.8, 0.0022
843.0, 0.00226
843.2, 0.00228
843.4, 0.00229
843.6, 0.00226
843.8, 0.00221
844.0, 0.00214
844.2, 0.00204
844.4, 0.00193
844.6, 0.00183
844.8, 0.00171
845.0, 0.0016
845.2, 0.00148
845.4, 0.00138
845.6, 0.00129
845.8, 0.0012
846.0, 0.00111
846.2, 0.00104
846.4, 9.7625e-04
846.6, 9.1175e-04
846.8, 8.5664e-04
847.0, 8.0657e-04
847.2, 7.6218e-04
847.4, 7.2238e-04
847.6, 6.8642e-04
847.8, 6.5589e-04
848.0, 6.2654e-04
848.2, 5.9681e-04
848.4, 5.7376e-04
848.6, 5.5486e-04
848.8, 5.3666e-04
849.0, 5.2028e-04
849.2, 5.0678e-04
849.4, 4.9218e-04
849.6, 4.7769e-04
849.8, 4.7069e-04
850.0, 4.6371e-04
850.2, 4.5672e-04
850.4, 4.5095e-04
850.6, 4.4579e-04
850.8, 4.4211e-04
851.0, 4.3936e-04
851.2, 4.3761e-04
851.4, 4.3575e-04
851.6, 4.346e-04
851.8, 4.3638e-04
852.0, 4.3789e-04
852.2, 4.3919e-04
852.4, 4.438e-04
852.6, 4.4907e-04
852.8, 4.5521e-04
853.0, 4.622e-04
853.2, 4.6975e-04
853.4, 4.781e-04
853.6, 4.8924e-04
853.8, 5.0559e-04
854.0, 5.1862e-04
854.2, 5.3059e-04
854.4, 5.4521e-04
854.6, 5.6283e-04
854.8, 5.8454e-04
855.0, 6.0602e-04
855.2, 6.2902e-04
855.4, 6.5847e-04
855.6, 6.883e-04
855.8, 7.1852e-04
856.0, 7.5296e-04
856.2, 7.8992e-04
856.4, 8.3023e-04
856.6, 8.7336e-04
856.8, 9.1928e-04
857.0, 9.7619e-04
857.2, 0.00104
857.4, 0.00109
857.6, 0.00116
857.8, 0.00124
858.0, 0.00132
858.2, 0.0014
858.4, 0.00149
858.6, 0.00159
858.8, 0.00168
859.0, 0.00179
859.2, 0.00189
859.4, 0.002
859.6, 0.0021
859.8, 0.00219
860.0, 0.00228
860.2, 0.00236
860.4, 0.00242
860.6, 0.00246
860.8, 0.0025
861.0, 0.00251
861.2, 0.0025
861.4, 0.00247
861.6, 0.00243
861.8, 0.00239
862.0, 0.00232
862.2, 0.00225
862.4, 0.00218
862.6, 0.00209
862.8, 0.002
863.0, 0.00191
863.2, 0.00183
863.4, 0.00175
863.6, 0.00167
863.8, 0.0016
864.0, 0.00153
864.2, 0.00146
864.4, 0.0014
864.6, 0.00134
864.8, 0.00129
865.0, 0.00123
865.2, 0.00119
865.4, 0.00114
865.6, 0.0011
865.8, 0.00106
866.0, 0.00102
866.2, 9.9234e-04
866.4, 9.6252e-04
866.6, 9.3008e-04
866.8, 9.0027e-04
867.0, 8.7331e-04
867.2, 8.5441e-04
867.4, 8.3423e-04
867.6, 8.1309e-04
867.8, 7.929e-04
868.0, 7.7414e-04
868.2, 7.5833e-04
868.4, 7.4427e-04
868.6, 7.3202e-04
868.8, 7.1778e-04
869.0, 7.034e-04
869.2, 6.9283e-04
869.4, 6.8276e-04
869.6, 6.7325e-04
869.8, 6.6466e-04
870.0, 6.5643e-04
870.2, 6.4855e-04
870.4, 6.4063e-04
870.6, 6.3269e-04
870.8, 6.2564e-04
871.0, 6.2042e-04
871.2, 6.2084e-04
871.4, 6.1698e-04
871.6, 6.101e-04
871.8, 6.0544e-04
872.0, 6.0213e-04
872.2, 6.017e-04
872.4, 6.0095e-04
872.6, 6.0003e-04
872.8, 6.0242e-04
873.0, 6.0293e-04
873.2, 6.0011e-04
873.4, 6.0053e-04
873.6, 6.0236e-04
873.8, 6.0558e-04
874.0, 6.07e-04
874.2, 6.0601e-04
874.4, 6.0809e-04
874.6, 6.1141e-04
874.8, 6.1707e-04
875.0, 6.2262e-04
875.2, 6.2805e-04
875.4, 6.3425e-04
875.6, 6.4075e-04
875.8, 6.4772e-04
876.0, 6.5604e-04
876.2, 6.6546e-04
876.4, 6.7579e-04
876.6, 6.8661e-04
876.8, 6.9826e-04
877.0, 7.0926e-04
877.2, 7.1994e-04
877.4, 7.3983e-04
877.6, 7.5848e-04
877.8, 7.7434e-04
878.0, 7.9199e-04
878.2, 8.1065e-04
878.4, 8.2975e-04
878.6, 8.5272e-04
878.8, 8.8114e-04
879.0, 9.0756e-04
879.2, 9.3389e-04
879.4, 9.6067e-04
879.6, 9.9387e-04
879.8, 0.00103
880.0, 0.00107
880.2, 0.0011
880.4, 0.00114
880.6, 0.00118
880.8, 0.00122
881.0, 0.00126
881.2, 0.00131
881.4, 0.00136
881.6, 0.0014
881.8, 0.00145
882.0, 0.0015
882.2, 0.00155
882.4, 0.0016
882.6, 0.00164
882.8, 0.00168
883.0, 0.00172
883.2, 0.00175
883.4, 0.00179
883.6, 0.00181
883.8, 0.00183
884.0, 0.00183
884.2, 0.00183
884.4, 0.00182
884.6, 0.0018
884.8, 0.00178
885.0, 0.00176
885.2, 0.00172
885.4, 0.00169
885.6, 0.00164
885.8, 0.00159
886.0, 0.00154
886.2, 0.00149
886.4, 0.00143
886.6, 0.00138
886.8, 0.00133
887.0, 0.00128
887.2, 0.00123
887.4, 0.00118
887.6, 0.00114
887.8, 0.00109
888.0, 0.00105
888.2, 0.00101
888.4, 9.8036e-04
888.6, 9.437e-04
888.8, 9.1219e-04
889.0, 8.8467e-04
889.2, 8.571e-04
889.4, 8.307e-04
889.6, 8.062e-04
889.8, 7.8252e-04
890.0, 7.5959e-04
890.2, 7.4128e-04
890.4, 7.2325e-04
890.6, 7.0534e-04
890.8, 6.9039e-04
891.0, 6.7692e-04
891.2, 6.6588e-04
891.4, 6.5525e-04
891.6, 6.4507e-04
891.8, 6.3497e-04
892.0, 6.2591e-04
892.2, 6.2181e-04
892.4, 6.1808e-04
892.6, 6.1467e-04
892.8, 6.1069e-04
893.0, 6.0671e-04
893.2, 6.0293e-04
893.4, 6.0187e-04
893.6, 6.0258e-04
893.8, 6.0584e-04
894.0, 6.0913e-04
894.2, 6.123e-04
894.4, 6.1773e-04
894.6, 6.2415e-04
894.8, 6.2919e-04
895.0, 6.3623e-04
895.2, 6.4622e-04
895.4, 6.5661e-04
895.6, 6.6758e-04
895.8, 6.8111e-04
896.0, 6.9713e-04
896.2, 7.1586e-04
896.4, 7.3359e-04
896.6, 7.526e-04
896.8, 7.761e-04
897.0, 7.9917e-04
897.2, 8.2207e-04
897.4, 8.5118e-04
897.6, 8.8256e-04
897.8, 9.1719e-04
898.0, 9.5446e-04
898.2, 9.9386e-04
898.4, 0.00103
898.6, 0.00108
898.8, 0.00113
899.0, 0.00119
899.2, 0.00124
899.4, 0.0013
899.6, 0.00137
899.8, 0.00144
900.0, 0.00152
900.2, 0.0016
900.4, 0.00167
900.6, 0.00175
900.8, 0.00184
901.0, 0.00192
901.2, 0.00201
901.4, 0.0021
901.6, 0.00217
901.8, 0.00224
902.0, 0.0023
902.2, 0.00235
902.4, 0.00238
902.6, 0.00239
902.8, 0.0024
903.0, 0.00239
903.2, 0.00236
903.4, 0.00232
903.6, 0.00226
903.8, 0.00219
904.0, 0.00212
904.2, 0.00204
904.4, 0.00195
904.6, 0.00187
904.8, 0.00178
905.0, 0.0017
905.2, 0.00162
905.4, 0.00154
905.6, 0.00147
905.8, 0.00139
906.0, 0.00132
906.2, 0.00126
906.4, 0.00121
906.6, 0.00115
906.8, 0.0011
907.0, 0.00105
907.2, 0.00101
907.4, 9.6646e-04
907.6, 9.3103e-04
907.8, 8.9772e-04
908.0, 8.6622e-04
908.2, 8.3666e-04
908.4, 8.0951e-04
908.6, 7.8628e-04
908.8, 7.6375e-04
909.0, 7.4201e-04
909.2, 7.2457e-04
909.4, 7.0824e-04
909.6, 6.9334e-04
909.8, 6.7949e-04
910.0, 6.664e-04
910.2, 6.5519e-04
910.4, 6.4543e-04
910.6, 6.371e-04
910.8, 6.3081e-04
911.0, 6.2445e-04
911.2, 6.166e-04
911.4, 6.1245e-04
911.6, 6.1088e-04
911.8, 6.1159e-04
912.0, 6.1161e-04
912.2, 6.0984e-04
912.4, 6.0988e-04
912.6, 6.1094e-04
912.8, 6.1593e-04
913.0, 6.1911e-04
913.2, 6.1972e-04
913.4, 6.2657e-04
913.6, 6.3513e-04
913.8, 6.4304e-04
914.0, 6.5169e-04
914.2, 6.6108e-04
914.4, 6.7312e-04
914.6, 6.8567e-04
914.8, 6.9826e-04
915.0, 7.1393e-04
915.2, 7.3181e-04
915.4, 7.5286e-04
915.6, 7.7328e-04
915.8, 7.9174e-04
916.0, 8.1386e-04
916.2, 8.3809e-04
916.4, 8.6462e-04
916.6, 8.9347e-04
916.8, 9.2519e-04
917.0, 9.6001e-04
917.2, 9.9633e-04
917.4, 0.00103
917.6, 0.00107
917.8, 0.00112
918.0, 0.00116
918.2, 0.00121
918.4, 0.00125
918.6, 0.0013
918.8, 0.00135
919.0, 0.00141
919.2, 0.00146
919.4, 0.00151
919.6, 0.00156
919.8, 0.0016
920.0, 0.00165
920.2, 0.00169
920.4, 0.00173
920.6, 0.00175
920.8, 0.00177
921.0, 0.00179
921.2, 0.0018
921.4, 0.0018
921.6, 0.00178
921.8, 0.00176
922.0, 0.00174
922.2, 0.00171
922.4, 0.00167
922.6, 0.00163
922.8, 0.00158
923.0, 0.00153
923.2, 0.00148
923.4, 0.00142
923.6, 0.00137
923.8, 0.00131
924.0, 0.00126
924.2, 0.00121
924.4, 0.00116
924.6, 0.00112
924.8, 0.00107
925.0, 0.00102
925.2, 9.8549e-04
925.4, 9.4908e-04
925.6, 9.0754e-04
925.8, 8.7223e-04
926.0, 8.4012e-04
926.2, 8.1189e-04
926.4, 7.843e-04
926.6, 7.5735e-04
926.8, 7.3341e-04
927.0, 7.1009e-04
927.2, 6.8581e-04
927.4, 6.6696e-04
927.6, 6.5175e-04
927.8, 6.3291e-04
928.0, 6.1602e-04
928.2, 6.0277e-04
928.4, 5.8895e-04
928.6, 5.751e-04
928.8, 5.6164e-04
929.0, 5.492e-04
929.2, 5.3794e-04
929.4, 5.3136e-04
929.6, 5.2584e-04
929.8, 5.2013e-04
930.0, 5.1006e-04
930.2, 4.9668e-04
930.4, 4.9579e-04
930.6, 4.9541e-04
930.8, 4.9362e-04
931.0, 4.8973e-04
931.2, 4.8486e-04
931.4, 4.8359e-04
931.6, 4.832e-04
931.8, 4.8415e-04
932.0, 4.844e-04
932.2, 4.8449e-04
932.4, 4.8544e-04
932.6, 4.9044e-04
932.8, 4.9231e-04
933.0, 4.9449e-04
933.2, 5.0165e-04
933.4, 5.0682e-04
933.6, 5.0981e-04
933.8, 5.1431e-04
934.0, 5.1877e-04
934.2, 5.2329e-04
934.4, 5.3662e-04
934.6, 5.4382e-04
934.8, 5.5746e-04
935.0, 5.659e-04
935.2, 5.7704e-04
935.4, 5.9101e-04
935.6, 6.0474e-04
935.8, 6.2404e-04
936.0, 6.3817e-04
936.2, 6.4738e-04
936.4, 6.7249e-04
936.6, 6.9454e-04
936.8, 7.1397e-04
937.0, 7.3148e-04
937.2, 7.6101e-04
937.4, 7.943e-04
937.6, 8.2035e-04
937.8, 8.5169e-04
938.0, 8.8612e-04
938.2, 9.2271e-04
938.4, 9.602e-04
938.6, 0.00101
938.8, 0.00105
939.0, 0.00111
939.2, 0.00115
939.4, 0.00122
939.6, 0.00129
939.8, 0.00136
940.0, 0.00144
940.2, 0.00153
940.4, 0.00162
940.6, 0.00171
940.8, 0.00183
941.0, 0.00195
941.2, 0.00209
941.4, 0.00223
941.6, 0.00237
941.8, 0.00257
942.0, 0.00276
942.2, 0.00298
942.4, 0.00321
942.6, 0.00346
942.8, 0.00372
943.0, 0.00403
943.2, 0.00435
943.4, 0.00469
943.6, 0.00507
943.8, 0.00546
944.0, 0.00584
944.2, 0.00622
944.4, 0.00661
944.6, 0.00697
944.8, 0.00733
945.0, 0.00761
945.2, 0.00787
945.4, 0.00805
945.6, 0.00818
945.8, 0.00823
946.0, 0.00819
946.2, 0.0081
946.4, 0.00794
946.6, 0.00774
946.8, 0.00752
947.0, 0.00726
947.2, 0.00697
947.4, 0.00669
947.6, 0.00639
947.8, 0.00612
948.0, 0.00582
948.2, 0.00556
948.4, 0.0053
948.6, 0.00507
948.8, 0.00484
949.0, 0.00463
949.2, 0.00445
949.4, 0.00424
949.6, 0.00412
949.8, 0.00394
950.0, 0.00379
950.2, 0.00367
950.4, 0.00355
950.6, 0.00343
950.8, 0.00334
951.0, 0.00323
951.2, 0.00317
951.4, 0.00308
951.6, 0.00302
951.8, 0.00296
952.0, 0.00289
952.2, 0.00283
952.4, 0.00279
952.6, 0.00274
952.8, 0.00272
953.0, 0.00268
953.2, 0.00265
953.4, 0.00264
953.6, 0.00262
953.8, 0.00261
954.0, 0.00259
954.2, 0.00257
954.4, 0.00256
954.6, 0.00257
954.8, 0.00257
955.0, 0.00256
955.2, 0.00257
955.4, 0.00258
955.6, 0.00259
955.8, 0.00261
956.0, 0.00262
956.2, 0.00263
956.4, 0.00266
956.6, 0.00269
956.8, 0.00272
957.0, 0.00274
957.2, 0.00276
957.4, 0.00281
957.6, 0.00285
957.8, 0.00289
958.0, 0.00295
958.2, 0.00299
958.4, 0.00305
958.6, 0.00309
958.8, 0.00314
959.0, 0.0032
959.2, 0.00328
959.4, 0.00333
959.6, 0.0034
959.8, 0.00348
960.0, 0.00356
960.2, 0.00361
960.4, 0.00372
960.6, 0.00382
960.8, 0.00389
961.0, 0.004
961.2, 0.00408
961.4, 0.00416
961.6, 0.00427
961.8, 0.00439
962.0, 0.00449
962.2, 0.00461
962.4, 0.00472
962.6, 0.00484
962.8, 0.00496
963.0, 0.00507
963.2, 0.00519
963.4, 0.00532
963.6, 0.00546
963.8, 0.0056
964.0, 0.00571
964.2, 0.00585
964.4, 0.00598
964.6, 0.00612
964.8, 0.00624
965.0, 0.00636
965.2, 0.00649
965.4, 0.00662
965.6, 0.00675
965.8, 0.00685
966.0, 0.00697
966.2, 0.00708
966.4, 0.00717
966.6, 0.00729
966.8, 0.00739
967.0, 0.00745
967.2, 0.00751
967.4, 0.00757
967.6, 0.00764
967.8, 0.00771
968.0, 0.00773
968.2, 0.00775
968.4, 0.00774
968.6, 0.00776
968.8, 0.00775
969.0, 0.00773
969.2, 0.0077
969.4, 0.00767
969.6, 0.00763
969.8, 0.00756
970.0, 0.00751
970.2, 0.00742
970.4, 0.00734
970.6, 0.00724
970.8, 0.00712
971.0, 0.00703
971.2, 0.00689
971.4, 0.00677
971.6, 0.00667
971.8, 0.00654
972.0, 0.00641
972.2, 0.00626
972.4, 0.00607
972.6, 0.00592
972.8, 0.00578
973.0, 0.00565
973.2, 0.0055
973.4, 0.00536
973.6, 0.00524
973.8, 0.0051
974.0, 0.00497
974.2, 0.00482
974.4, 0.0047
974.6, 0.00458
974.8, 0.00447
975.0, 0.00434
975.2, 0.00423
975.4, 0.0041
975.6, 0.00399
975.8, 0.00388
976.0, 0.0038
976.2, 0.00369
976.4, 0.00361
976.6, 0.00353
976.8, 0.00342
977.0, 0.00335
977.2, 0.00328
977.4, 0.00319
977.6, 0.00313
977.8, 0.00306
978.0, 0.00299
978.2, 0.00292
978.4, 0.00286
978.6, 0.0028
978.8, 0.00275
979.0, 0.0027
979.2, 0.00264
979.4, 0.00259
979.6, 0.00255
979.8, 0.0025
980.0, 0.00247
980.2, 0.00244
980.4, 0.0024
980.6, 0.00237
980.8, 0.00233
981.0, 0.00232
981.2, 0.00227
981.4, 0.00227
981.6, 0.00224
981.8, 0.00222
982.0, 0.0022
982.2, 0.00218
982.4, 0.00217
982.6, 0.00216
982.8, 0.00215
983.0, 0.00214
983.2, 0.00212
983.4, 0.00212
983.6, 0.00212
983.8, 0.00212
984.0, 0.00211
984.2, 0.00212
984.4, 0.00214
984.6, 0.00212
984.8, 0.00214
985.0, 0.00215
985.2, 0.00215
985.4, 0.00218
985.6, 0.00218
985.8, 0.0022
986.0, 0.00222
986.2, 0.00224
986.4, 0.00227
986.6, 0.00229
986.8, 0.00232
987.0, 0.00236
987.2, 0.00239
987.4, 0.00244
987.6, 0.00246
987.8, 0.0025
988.0, 0.00255
988.2, 0.0026
988.4, 0.00265
988.6, 0.00271
988.8, 0.00277
989.0, 0.00282
989.2, 0.00289
989.4, 0.00297
989.6, 0.00304
989.8, 0.00312
990.0, 0.0032
990.2, 0.00328
990.4, 0.00337
990.6, 0.00347
990.8, 0.00354
991.0, 0.00366
991.2, 0.00376
991.4, 0.00386
991.6, 0.00397
991.8, 0.00406
992.0, 0.00419
992.2, 0.00429
992.4, 0.00441
992.6, 0.00453
992.8, 0.00462
993.0, 0.00473
993.2, 0.00481
993.4, 0.00491
993.6, 0.005
993.8, 0.00507
994.0, 0.00514
994.2, 0.00519
994.4, 0.00526
994.6, 0.00527
994.8, 0.00529
995.0, 0.00527
995.2, 0.00524
995.4, 0.0052
995.6, 0.00516
995.8, 0.00511
996.0, 0.00502
996.2, 0.00496
996.4, 0.00486
996.6, 0.00476
996.8, 0.00465
997.0, 0.00455
997.2, 0.0044
997.4, 0.00429
997.6, 0.00418
997.8, 0.00405
998.0, 0.0039
998.2, 0.00378
998.4, 0.00367
998.6, 0.00355
998.8, 0.00343
999.0, 0.00331
999.2, 0.00321
999.4, 0.0031
999.6, 0.00299
999.8, 0.00291
1000.0, 0.00281
1000.2, 0.00272
1000.4, 0.00264
1000.6, 0.00254
1000.8, 0.00246
1001.0, 0.0024
1001.2, 0.00232
1001.4, 0.00226
1001.6, 0.0022
1001.8, 0.00214
1002.0, 0.0021
1002.2, 0.00204
1002.4, 0.00199
1002.6, 0.00195
1002.8, 0.0019
1003.0, 0.00186
1003.2, 0.00182
1003.4, 0.00179
1003.6, 0.00177
1003.8, 0.00173
1004.0, 0.0017
1004.2, 0.00168
1004.4, 0.00164
1004.6, 0.00164
1004.8, 0.00162
1005.0, 0.0016
1005.2, 0.00157
1005.4, 0.00157
1005.6, 0.00154
1005.8, 0.00153
1006.0, 0.00152
1006.2, 0.00152
1006.4, 0.00151
1006.6, 0.0015
1006.8, 0.00151
1007.0, 0.0015
1007.2, 0.00149
1007.4, 0.00149
1007.6, 0.00149
1007.8, 0.0015
1008.0, 0.00149
1008.2, 0.00151
1008.4, 0.00151
1008.6, 0.00152
1008.8, 0.00154
1009.0, 0.00154
1009.2, 0.00157
1009.4, 0.00157
1009.6, 0.00159
1009.8, 0.00161
1010.0, 0.00163
1010.2, 0.00166
1010.4, 0.00168
1010.6, 0.00171
1010.8, 0.00173
1011.0, 0.00176
1011.2, 0.00179
1011.4, 0.00182
1011.6, 0.00186
1011.8, 0.00191
1012.0, 0.00196
1012.2, 0.002
1012.4, 0.00204
1012.6, 0.00209
1012.8, 0.00214
1013.0, 0.00219
1013.2, 0.00226
1013.4, 0.00231
1013.6, 0.00238
1013.8, 0.00245
1014.0, 0.00252
1014.2, 0.00259
1014.4, 0.00269
1014.6, 0.00276
1014.8, 0.00286
1015.0, 0.00296
1015.2, 0.00304
1015.4, 0.00315
1015.6, 0.00324
1015.8, 0.00333
1016.0, 0.00343
1016.2, 0.00353
1016.4, 0.00363
1016.6, 0.00371
1016.8, 0.00383
1017.0, 0.00393
1017.2, 0.004
1017.4, 0.00408
1017.6, 0.00417
1017.8, 0.00423
1018.0, 0.0043
1018.2, 0.00436
1018.4, 0.00434
1018.6, 0.00439
1018.8, 0.00442
1019.0, 0.00441
1019.2, 0.00436
1019.4, 0.00435
1019.6, 0.00431
1019.8, 0.00428
1020.0, 0.0042
1020.2, 0.00413
1020.4, 0.00404
1020.6, 0.00395
1020.8, 0.00384
1021.0, 0.00376
1021.2, 0.00363
1021.4, 0.00353
1021.6, 0.00341
1021.8, 0.00332
1022.0, 0.00321
1022.2, 0.00309
1022.4, 0.00301
1022.6, 0.00292
1022.8, 0.00281
1023.0, 0.00272
1023.2, 0.00262
1023.4, 0.00253
1023.6, 0.00243
1023.8, 0.00235
1024.0, 0.00229
1024.2, 0.00221
1024.4, 0.00214
1024.6, 0.00208
1024.8, 0.00202
1025.0, 0.00195
1025.2, 0.00189
1025.4, 0.00184
1025.6, 0.00179
1025.8, 0.00175
1026.0, 0.00169
1026.2, 0.00165
1026.4, 0.00161
1026.6, 0.00157
1026.8, 0.00152
1027.0, 0.00149
1027.2, 0.00146
1027.4, 0.00143
1027.6, 0.0014
1027.8, 0.00138
1028.0, 0.00134
1028.2, 0.00132
1028.4, 0.00132
1028.6, 0.00128
1028.8, 0.00128
1029.0, 0.00125
1029.2, 0.00123
1029.4, 0.00121
1029.6, 0.0012
1029.8, 0.00119
1030.0, 0.00118
1030.2, 0.00117
1030.4, 0.00115
1030.6, 0.00114
1030.8, 0.00114
1031.0, 0.00113
1031.2, 0.00112
1031.4, 0.00112
1031.6, 0.00111
1031.8, 0.00111
1032.0, 0.0011
1032.2, 0.0011
1032.4, 0.0011
1032.6, 0.0011
1032.8, 0.00111
1033.0, 0.00111
1033.2, 0.00112
1033.4, 0.00112
1033.6, 0.00112
1033.8, 0.00114
1034.0, 0.00114
1034.2, 0.00115
1034.4, 0.00114
1034.6, 0.00116
1034.8, 0.00117
1035.0, 0.00118
1035.2, 0.0012
1035.4, 0.00121
1035.6, 0.00122
1035.8, 0.00124
1036.0, 0.00127
1036.2, 0.00128
1036.4, 0.00129
1036.6, 0.00132
1036.8, 0.00133
1037.0, 0.00136
1037.2, 0.00139
1037.4, 0.0014
1037.6, 0.00143
1037.8, 0.00147
1038.0, 0.0015
1038.2, 0.00153
1038.4, 0.00157
1038.6, 0.0016
1038.8, 0.00165
1039.0, 0.00169
1039.2, 0.00173
1039.4, 0.00179
1039.6, 0.00185
1039.8, 0.0019
1040.0, 0.00195
1040.2, 0.00202
1040.4, 0.00209
1040.6, 0.00215
1040.8, 0.00222
1041.0, 0.00228
1041.2, 0.00238
1041.4, 0.00247
1041.6, 0.00256
1041.8, 0.00264
1042.0, 0.00275
1042.2, 0.00288
1042.4, 0.003
1042.6, 0.00311
1042.8, 0.00325
1043.0, 0.00339
1043.2, 0.00355
1043.4, 0.00368
1043.6, 0.00382
1043.8, 0.00403
1044.0, 0.0042
1044.2, 0.00439
1044.4, 0.00459
1044.6, 0.00481
1044.8, 0.00498
1045.0, 0.00521
1045.2, 0.00547
1045.4, 0.00567
1045.6, 0.00591
1045.8, 0.00616
1046.0, 0.0064
1046.2, 0.00668
1046.4, 0.00687
1046.6, 0.00716
1046.8, 0.00742
1047.0, 0.00764
1047.2, 0.00786
1047.4, 0.00811
1047.6, 0.00836
1047.8, 0.00847
1048.0, 0.00863
1048.2, 0.00876
1048.4, 0.00883
1048.6, 0.00894
1048.8, 0.009
1049.0, 0.00898
1049.2, 0.00903
1049.4, 0.00904
1049.6, 0.00896
1049.8, 0.00887
1050.0, 0.00875
1050.2, 0.00865
1050.4, 0.00852
1050.6, 0.00838
1050.8, 0.00823
1051.0, 0.00811
1051.2, 0.00789
1051.4, 0.00773
1051.6, 0.00756
1051.8, 0.00744
1052.0, 0.00722
1052.2, 0.00705
1052.4, 0.0069
1052.6, 0.00676
1052.8, 0.00658
1053.0, 0.00642
1053.2, 0.00626
1053.4, 0.00611
1053.6, 0.00601
1053.8, 0.00583
1054.0, 0.00575
1054.2, 0.00562
1054.4, 0.00548
1054.6, 0.00541
1054.8, 0.00528
1055.0, 0.0052
1055.2, 0.00508
1055.4, 0.00501
1055.6, 0.00497
1055.8, 0.00489
1056.0, 0.00484
1056.2, 0.00471
1056.4, 0.0047
1056.6, 0.00468
1056.8, 0.00464
1057.0, 0.00458
1057.2, 0.00449
1057.4, 0.0045
1057.6, 0.00445
1057.8, 0.00442
1058.0, 0.00439
1058.2, 0.00441
1058.4, 0.00437
1058.6, 0.00437
1058.8, 0.00429
1059.0, 0.00434
1059.2, 0.00432
1059.4, 0.0043
1059.6, 0.00429
1059.8, 0.00432
1060.0, 0.00433
1060.2, 0.00434
1060.4, 0.00434
1060.6, 0.00438
1060.8, 0.00437
1061.0, 0.0044
1061.2, 0.00438
1061.4, 0.00441
1061.6, 0.00449
1061.8, 0.00456
1062.0, 0.00457
1062.2, 0.00457
1062.4, 0.0046
1062.6, 0.00467
1062.8, 0.00467
1063.0, 0.00477
1063.2, 0.0048
1063.4, 0.00489
1063.6, 0.00491
1063.8, 0.00497
1064.0, 0.00499
1064.2, 0.0051
1064.4, 0.00519
1064.6, 0.00524
1064.8, 0.00524
1065.0, 0.00536
1065.2, 0.00539
1065.4, 0.00592
1065.6, 0.00635
1065.8, 0.00678
1066.0, 0.00684
1066.2, 0.0069
1066.4, 0.00697
1066.6, 0.00704
1066.8, 0.00712
1067.0, 0.0072
1067.2, 0.00727
1067.4, 0.00734
1067.6, 0.00741
1067.8, 0.00748
1068.0, 0.00756
1068.2, 0.00763
1068.4, 0.0077
1068.6, 0.00773
1068.8, 0.00775
1069.0, 0.00777
1069.2, 0.0078
1069.4, 0.00783
1069.6, 0.00786
1069.8, 0.00789
1070.0, 0.00791
1070.2, 0.00793
1070.4, 0.00793
1070.6, 0.00792
1070.8, 0.0079
1071.0, 0.00788
1071.2, 0.00785
1071.4, 0.00782
1071.6, 0.0078
1071.8, 0.00777
1072.0, 0.00775
1072.2, 0.00773
1072.4, 0.00768
1072.6, 0.00761
1072.8, 0.00755
1073.0, 0.00748
1073.2, 0.00742
1073.4, 0.00735
1073.6, 0.00729
1073.8, 0.00724
1074.0, 0.00718
1074.2, 0.00713
1074.4, 0.00706
1074.6, 0.00698
1074.8, 0.00691
1075.0, 0.00668
1075.2, 0.00639
1075.4, 0.00611
1075.6, 0.00594
1075.8, 0.00589
1076.0, 0.00583
1076.2, 0.00578
1076.4, 0.00574
1076.6, 0.0057
1076.8, 0.00567
1077.0, 0.00563
1077.2, 0.00557
1077.4, 0.00551
1077.6, 0.00545
1077.8, 0.00541
1078.0, 0.00539
1078.2, 0.00537
1078.4, 0.00534
1078.6, 0.00532
1078.8, 0.0053
1079.0, 0.00528
1079.2, 0.00526
1079.4, 0.00524
1079.6, 0.00521
1079.8, 0.00519
1080.0, 0.00517
1080.2, 0.00514
1080.4, 0.00512
1080.6, 0.00509
1080.8, 0.00509
1081.0, 0.0051
1081.2, 0.0051
1081.4, 0.00511
1081.6, 0.00511
1081.8, 0.00512
1082.0, 0.00512
1082.2, 0.00513
1082.4, 0.00514
1082.6, 0.00515
1082.8, 0.00516
1083.0, 0.00518
1083.2, 0.00521
1083.4, 0.00523
1083.6, 0.00525
1083.8, 0.00527
1084.0, 0.00529
1084.2, 0.00531
1084.4, 0.00535
1084.6, 0.0054
1084.8, 0.00544
1085.0, 0.00549
1085.2, 0.00554
1085.4, 0.00559
1085.6, 0.00565
1085.8, 0.00571
1086.0, 0.00576
1086.2, 0.00582
1086.4, 0.00588
1086.6, 0.00594
1086.8, 0.006
1087.0, 0.00607
1087.2, 0.00613
1087.4, 0.0062
1087.6, 0.00626
1087.8, 0.00633
1088.0, 0.0064
1088.2, 0.00647
1088.4, 0.00654
1088.6, 0.00661
1088.8, 0.00669
1089.0, 0.00676
1089.2, 0.00683
1089.4, 0.0069
1089.6, 0.00697
1089.8, 0.00704
1090.0, 0.00711
1090.2, 0.00717
1090.4, 0.00723
1090.6, 0.0073
1090.8, 0.00736
1091.0, 0.00742
1091.2, 0.00748
1091.4, 0.00753
1091.6, 0.00759
1091.8, 0.00764
1092.0, 0.0077
1092.2, 0.00775
1092.4, 0.00779
1092.6, 0.00783
1092.8, 0.00787
1093.0, 0.00791
1093.2, 0.00795
1093.4, 0.00797
1093.6, 0.00797
1093.8, 0.00796
1094.0, 0.00795
1094.2, 0.00794
1094.4, 0.00793
1094.6, 0.00793
1094.8, 0.00794
1095.0, 0.00794
1095.2, 0.00795
1095.4, 0.00794
1095.6, 0.00793
1095.8, 0.00792
1096.0, 0.0079
1096.2, 0.00789
1096.4, 0.00788
1096.6, 0.00787
1096.8, 0.00785
1097.0, 0.00781
1097.2, 0.00777
1097.4, 0.00773
1097.6, 0.00769
1097.8, 0.00765
1098.0, 0.00761
1098.2, 0.00757
1098.4, 0.00753
1098.6, 0.00749
1098.8, 0.00744
1099.0, 0.0074
1099.2, 0.00736
1099.4, 0.00731
1099.6, 0.00727
1099.8, 0.00723
1100.0, 0.00719
1100.2, 0.00714
1100.4, 0.0071
1100.6, 0.00706
1100.8, 0.00702
1101.0, 0.00697
1101.2, 0.00693
1101.4, 0.00691
1101.6, 0.00688
1101.8, 0.00685
1102.0, 0.00683
1102.2, 0.0068
1102.4, 0.00677
1102.6, 0.00675
1102.8, 0.00672
1103.0, 0.0067
1103.2, 0.00668
1103.4, 0.00667
1103.6, 0.00665
1103.8, 0.00663
1104.0, 0.00661
1104.2, 0.00659
1104.4, 0.00658
1104.6, 0.00658
1104.8, 0.00659
1105.0, 0.00659
1105.2, 0.00659
1105.4, 0.0066
1105.6, 0.0066
1105.8, 0.0066
1106.0, 0.00661
1106.2, 0.00661
1106.4, 0.00662
1106.6, 0.00664
1106.8, 0.00666
1107.0, 0.00668
1107.2, 0.0067
1107.4, 0.00672
1107.6, 0.00674
1107.8, 0.00676
1108.0, 0.00678
1108.2, 0.00679
1108.4, 0.00679
1108.6, 0.00679
1108.8, 0.00679
1109.0, 0.0068
1109.2, 0.0068
1109.4, 0.0068
1109.6, 0.0068
1109.8, 0.00681
1110.0, 0.00681
