#Typical Measured Spectrum of Semrock FF538-FDi01 Optical Filter	
#For wavelengths between 320 and 1120 nm, values near or below 3e-7 (Optical Density 6.5) are measurement noise limited.
#For wavelengths < 320 nm and > 1120 nm, values near or below 3e-6 (Optical Density 5.5) are measurement noise limited. 
#Data format:  Wavelength (nm) <tab> Transmission (0 to 1)
#Type: dichroic,
#Name: Semrock FF538-FDi01
wavelength,transmission
340.0,0.20964
340.2,0.20741
340.4,0.18834
340.6,0.15985
340.8,0.12737
341.0,0.10765
341.2,0.10046
341.4,0.10444
341.6,0.11479
341.8,0.12477
342.0,0.1326
342.2,0.13347
342.4,0.1261
342.6,0.1125
342.8,0.09295
343.0,0.0708
343.2,0.05126
343.4,0.03526
343.6,0.02437
343.8,0.01806
344.0,0.01353
344.2,0.01095
344.4,0.00945
344.6,0.00808
344.8,0.00728
345.0,0.00672
345.2,0.00663
345.4,0.00642
345.6,0.00669
345.8,0.00692
346.0,0.00757
346.2,0.00812
346.4,0.00945
346.6,0.01099
346.8,0.0122
347.0,0.01385
347.2,0.01508
347.4,0.016
347.6,0.01578
347.8,0.01494
348.0,0.0138
348.2,0.01245
348.4,0.01064
348.6,0.00892
348.8,0.0073
349.0,0.00604
349.2,0.00506
349.4,0.00429
349.6,0.00372
349.8,0.00345
350.0,0.00331
350.2,0.00302
350.4,0.00309
350.6,0.00296
350.8,0.00301
351.0,0.00305
351.2,0.00327
351.4,0.0035
351.6,0.00388
351.8,0.00447
352.0,0.00504
352.2,0.00582
352.4,0.00709
352.6,0.00814
352.8,0.00972
353.0,0.01135
353.2,0.0125
353.4,0.01337
353.6,0.01334
353.8,0.01296
354.0,0.01217
354.2,0.01089
354.4,0.00975
354.6,0.00862
354.8,0.00799
355.0,0.00733
355.2,0.00702
355.4,0.00671
355.6,0.00671
355.8,0.0071
356.0,0.00738
356.2,0.00764
356.4,0.00797
356.6,0.0088
356.8,0.00959
357.0,0.01069
357.2,0.01209
357.4,0.01429
357.6,0.01643
357.8,0.01941
358.0,0.02203
358.2,0.0238
358.4,0.02468
358.6,0.02492
358.8,0.02414
359.0,0.02234
359.2,0.02035
359.4,0.01752
359.6,0.01608
359.8,0.01391
360.0,0.01246
360.2,0.01127
360.4,0.01093
360.6,0.0108
360.8,0.01088
361.0,0.0111
361.2,0.0114
361.4,0.01194
361.6,0.01262
361.8,0.01321
362.0,0.01356
362.2,0.01353
362.4,0.01334
362.6,0.0124
362.8,0.01148
363.0,0.01022
363.2,0.00864
363.4,0.00757
363.6,0.00638
363.8,0.00538
364.0,0.00442
364.2,0.00401
364.4,0.00335
364.6,0.00284
364.8,0.00274
365.0,0.00277
365.2,0.00254
365.4,0.00275
365.6,0.0027
365.8,0.00245
366.0,0.0029
366.2,0.00297
366.4,0.00306
366.6,0.00292
366.8,0.00345
367.0,0.00349
367.2,0.00369
367.4,0.00404
367.6,0.00428
367.8,0.00421
368.0,0.00415
368.2,0.00431
368.4,0.00443
368.6,0.00401
368.8,0.0038
369.0,0.00376
369.2,0.0032
369.4,0.00309
369.6,0.00298
369.8,0.00295
370.0,0.00267
370.2,0.00288
370.4,0.00248
370.6,0.00233
370.8,0.00236
371.0,0.00217
371.2,0.0026
371.4,0.00254
371.6,0.00247
371.8,0.00266
372.0,0.00293
372.2,0.00332
372.4,0.00328
372.6,0.00403
372.8,0.00405
373.0,0.00442
373.2,0.00482
373.4,0.00515
373.6,0.00575
373.8,0.00618
374.0,0.00665
374.2,0.00738
374.4,0.00773
374.6,0.00783
374.8,0.00848
375.0,0.00854
375.2,0.00817
375.4,0.0081
375.6,0.0077
375.8,0.00715
376.0,0.00674
376.2,0.00641
376.4,0.00599
376.6,0.00768
376.8,0.00547
377.0,0.00545
377.2,0.00522
377.4,0.0055
377.6,0.00554
377.8,0.00581
378.0,0.0062
378.2,0.00689
378.4,0.00786
378.6,0.00878
378.8,0.01038
379.0,0.01247
379.2,0.01483
379.4,0.01711
379.6,0.01954
379.8,0.02106
380.0,0.02213
380.2,0.02211
380.4,0.0214
380.6,0.01995
380.8,0.01782
381.0,0.01541
381.2,0.01273
381.4,0.0109
381.6,0.00881
381.8,0.00757
382.0,0.00659
382.2,0.00601
382.4,0.00526
382.6,0.00473
382.8,0.00464
383.0,0.00428
383.2,0.00417
383.4,0.00418
383.6,0.00464
383.8,0.00474
384.0,0.00475
384.2,0.00523
384.4,0.0057
384.6,0.00633
384.8,0.00708
385.0,0.00808
385.2,0.00852
385.4,0.00969
385.6,0.01043
385.8,0.01128
386.0,0.01196
386.2,0.01202
386.4,0.01216
386.6,0.01148
386.8,0.01081
387.0,0.00975
387.2,0.00862
387.4,0.00744
387.6,0.00667
387.8,0.00554
388.0,0.00473
388.2,0.00445
388.4,0.00383
388.6,0.00361
388.8,0.00311
389.0,0.00303
389.2,0.00274
389.4,0.00285
389.6,0.00256
389.8,0.00262
390.0,0.00262
390.2,0.00253
390.4,0.00298
390.6,0.00282
390.8,0.00285
391.0,0.00293
391.2,0.00321
391.4,0.00317
391.6,0.00352
391.8,0.00379
392.0,0.00496
392.2,0.00551
392.4,0.00596
392.6,0.00643
392.8,0.0079
393.0,0.00852
393.2,0.01001
393.4,0.01177
393.6,0.01412
393.8,0.01537
394.0,0.01816
394.2,0.01935
394.4,0.02103
394.6,0.02141
394.8,0.02202
395.0,0.02211
395.2,0.02134
395.4,0.02016
395.6,0.01849
395.8,0.01733
396.0,0.01573
396.2,0.01503
396.4,0.01375
396.6,0.01275
396.8,0.01192
397.0,0.01142
397.2,0.01098
397.4,0.0102
397.6,0.01004
397.8,0.01003
398.0,0.00982
398.2,0.00983
398.4,0.0101
398.6,0.01038
398.8,0.01058
399.0,0.01114
399.2,0.01112
399.4,0.01099
399.6,0.01161
399.8,0.01242
400.0,0.01265
400.2,0.01335
400.4,0.01415
400.6,0.01476
400.8,0.01554
401.0,0.01602
401.2,0.01685
401.4,0.01701
401.6,0.01783
401.8,0.0185
402.0,0.01889
402.2,0.01986
402.4,0.02021
402.6,0.02045
402.8,0.02081
403.0,0.02165
403.2,0.02165
403.4,0.02214
403.6,0.02289
403.8,0.02318
404.0,0.02359
404.2,0.02412
404.4,0.02464
404.6,0.02456
404.8,0.02532
405.0,0.02544
405.2,0.0256
405.4,0.02619
405.6,0.02639
405.8,0.02621
406.0,0.02655
406.2,0.02684
406.4,0.02632
406.6,0.0265
406.8,0.02621
407.0,0.02625
407.2,0.0261
407.4,0.02577
407.6,0.02597
407.8,0.02557
408.0,0.02566
408.2,0.0253
408.4,0.0253
408.6,0.02533
408.8,0.02532
409.0,0.02539
409.2,0.02557
409.4,0.02595
409.6,0.02626
409.8,0.02644
410.0,0.02652
410.2,0.02692
410.4,0.02722
410.6,0.02779
410.8,0.02823
411.0,0.02845
411.2,0.02888
411.4,0.02918
411.6,0.02922
411.8,0.02961
412.0,0.02939
412.2,0.02921
412.4,0.02907
412.6,0.02878
412.8,0.02803
413.0,0.02748
413.2,0.02697
413.4,0.02612
413.6,0.02523
413.8,0.02427
414.0,0.02359
414.2,0.02263
414.4,0.02164
414.6,0.02084
414.8,0.01984
415.0,0.01907
415.2,0.01839
415.4,0.0177
415.6,0.01708
415.8,0.01639
416.0,0.01585
416.2,0.01532
416.4,0.01495
416.6,0.01437
416.8,0.01424
417.0,0.01393
417.2,0.01364
417.4,0.01344
417.6,0.0133
417.8,0.01322
418.0,0.0133
418.2,0.01332
418.4,0.01317
418.6,0.01356
418.8,0.0135
419.0,0.01417
419.2,0.0146
419.4,0.01504
419.6,0.01538
419.8,0.01598
420.0,0.01703
420.2,0.01759
420.4,0.01882
420.6,0.0199
420.8,0.02104
421.0,0.02239
421.2,0.02375
421.4,0.02503
421.6,0.02619
421.8,0.02718
422.0,0.02792
422.2,0.02852
422.4,0.02828
422.6,0.02785
422.8,0.02679
423.0,0.026
423.2,0.02452
423.4,0.02268
423.6,0.02087
423.8,0.01882
424.0,0.01708
424.2,0.01519
424.4,0.01357
424.6,0.0122
424.8,0.01077
425.0,0.0097
425.2,0.00864
425.4,0.00774
425.6,0.00707
425.8,0.00649
426.0,0.00601
426.2,0.00547
426.4,0.00507
426.6,0.00487
426.8,0.00445
427.0,0.00429
427.2,0.004
427.4,0.00385
427.6,0.00382
427.8,0.0036
428.0,0.00354
428.2,0.00355
428.4,0.00358
428.6,0.00342
428.8,0.00339
429.0,0.00349
429.2,0.00335
429.4,0.00351
429.6,0.00342
429.8,0.00347
430.0,0.00368
430.2,0.00387
430.4,0.00407
430.6,0.00408
430.8,0.00438
431.0,0.00475
431.2,0.00512
431.4,0.00567
431.6,0.00601
431.8,0.0069
432.0,0.00768
432.2,0.00881
432.4,0.00991
432.6,0.01139
432.8,0.01315
433.0,0.01475
433.2,0.01687
433.4,0.01898
433.6,0.02118
433.8,0.02296
434.0,0.02413
434.2,0.02513
434.4,0.02565
434.6,0.02518
434.8,0.02422
435.0,0.02307
435.2,0.02115
435.4,0.01894
435.6,0.01666
435.8,0.0144
436.0,0.01235
436.2,0.01057
436.4,0.00895
436.6,0.00798
436.8,0.00682
437.0,0.00598
437.2,0.00523
437.4,0.00481
437.6,0.00424
437.8,0.00383
438.0,0.00373
438.2,0.00341
438.4,0.00303
438.6,0.0027
438.8,0.00257
439.0,0.00257
439.2,0.00253
439.4,0.00242
439.6,0.00238
439.8,0.00221
440.0,0.00212
440.2,0.00222
440.4,0.00217
440.6,0.00208
440.8,0.0019
441.0,0.00204
441.2,0.00209
441.4,0.002
441.6,0.002
441.8,0.00221
442.0,0.0021
442.2,0.00228
442.4,0.0022
442.6,0.0023
442.8,0.00217
443.0,0.00236
443.2,0.00254
443.4,0.00266
443.6,0.00291
443.8,0.00308
444.0,0.00326
444.2,0.00345
444.4,0.00367
444.6,0.00413
444.8,0.00476
445.0,0.00564
445.2,0.00671
445.4,0.00789
445.6,0.00942
445.8,0.01108
446.0,0.013
446.2,0.01523
446.4,0.01785
446.6,0.02022
446.8,0.02285
447.0,0.02514
447.2,0.0268
447.4,0.02772
447.6,0.0282
447.8,0.02748
448.0,0.02645
448.2,0.02463
448.4,0.02242
448.6,0.01968
448.8,0.01681
449.0,0.01425
449.2,0.01148
449.4,0.00972
449.6,0.008
449.8,0.00677
450.0,0.00573
450.2,0.00492
450.4,0.00421
450.6,0.00371
450.8,0.00344
451.0,0.00299
451.2,0.00278
451.4,0.00263
451.6,0.00234
451.8,0.00218
452.0,0.00203
452.2,0.00193
452.4,0.00196
452.6,0.00182
452.8,0.00176
453.0,0.00174
453.2,0.00166
453.4,0.00162
453.6,0.00154
453.8,0.00155
454.0,0.00155
454.2,0.00151
454.4,0.00151
454.6,0.00139
454.8,0.00144
455.0,0.00159
455.2,0.00155
455.4,0.00156
455.6,0.00166
455.8,0.00158
456.0,0.00166
456.2,0.00171
456.4,0.00176
456.6,0.00189
456.8,0.00191
457.0,0.00199
457.2,0.00222
457.4,0.00231
457.6,0.00245
457.8,0.00271
458.0,0.00292
458.2,0.0032
458.4,0.00351
458.6,0.00407
458.8,0.00455
459.0,0.00528
459.2,0.0063
459.4,0.00753
459.6,0.00875
459.8,0.0103
460.0,0.01232
460.2,0.01449
460.4,0.01706
460.6,0.01958
460.8,0.02221
461.0,0.02433
461.2,0.02619
461.4,0.0276
461.6,0.02804
461.8,0.02808
462.0,0.02702
462.2,0.02548
462.4,0.0235
462.6,0.02103
462.8,0.01834
463.0,0.01577
463.2,0.01349
463.4,0.01126
463.6,0.00942
463.8,0.00799
464.0,0.0069
464.2,0.00603
464.4,0.00529
464.6,0.00479
464.8,0.0043
465.0,0.00388
465.2,0.00357
465.4,0.00324
465.6,0.00308
465.8,0.00286
466.0,0.0028
466.2,0.00269
466.4,0.00255
466.6,0.0024
466.8,0.00236
467.0,0.00221
467.2,0.00218
467.4,0.00213
467.6,0.0021
467.8,0.00206
468.0,0.00204
468.2,0.00204
468.4,0.00202
468.6,0.00209
468.8,0.00206
469.0,0.00204
469.2,0.00216
469.4,0.0021
469.6,0.00205
469.8,0.00203
470.0,0.00209
470.2,0.00234
470.4,0.00235
470.6,0.00235
470.8,0.00238
471.0,0.00258
471.2,0.00269
471.4,0.00271
471.6,0.00287
471.8,0.00314
472.0,0.0034
472.2,0.0036
472.4,0.00396
472.6,0.00424
472.8,0.00459
473.0,0.00519
473.2,0.00561
473.4,0.00668
473.6,0.00752
473.8,0.00889
474.0,0.01025
474.2,0.01183
474.4,0.01378
474.6,0.01558
474.8,0.01737
475.0,0.0195
475.2,0.02178
475.4,0.02394
475.6,0.026
475.8,0.0281
476.0,0.02968
476.2,0.03067
476.4,0.03159
476.6,0.03206
476.8,0.03195
477.0,0.03144
477.2,0.03031
477.4,0.02841
477.6,0.02637
477.8,0.02398
478.0,0.02148
478.2,0.01914
478.4,0.01707
478.6,0.01505
478.8,0.01322
479.0,0.01181
479.2,0.01045
479.4,0.00936
479.6,0.00859
479.8,0.00785
480.0,0.00727
480.2,0.00667
480.4,0.00612
480.6,0.00581
480.8,0.00549
481.0,0.00518
481.2,0.00492
481.4,0.0047
481.6,0.0045
481.8,0.00431
482.0,0.0043
482.2,0.00417
482.4,0.00409
482.6,0.00401
482.8,0.00399
483.0,0.00388
483.2,0.00393
483.4,0.00387
483.6,0.00392
483.8,0.00386
484.0,0.00397
484.2,0.004
484.4,0.00404
484.6,0.00408
484.8,0.00411
485.0,0.0043
485.2,0.00436
485.4,0.00447
485.6,0.00474
485.8,0.00483
486.0,0.00491
486.2,0.0051
486.4,0.00538
486.6,0.00567
486.8,0.00601
487.0,0.00631
487.2,0.00685
487.4,0.0073
487.6,0.00791
487.8,0.00848
488.0,0.00929
488.2,0.00992
488.4,0.01091
488.6,0.01199
488.8,0.01298
489.0,0.01408
489.2,0.01544
489.4,0.0166
489.6,0.01802
489.8,0.01946
490.0,0.02135
490.2,0.02316
490.4,0.02523
490.6,0.02748
490.8,0.02988
491.0,0.03218
491.2,0.03485
491.4,0.03738
491.6,0.03996
491.8,0.04219
492.0,0.0442
492.2,0.046
492.4,0.04703
492.6,0.04773
492.8,0.04827
493.0,0.04779
493.2,0.0474
493.4,0.0464
493.6,0.04511
493.8,0.04355
494.0,0.04172
494.2,0.04011
494.4,0.0384
494.6,0.03649
494.8,0.03484
495.0,0.03305
495.2,0.03159
495.4,0.02995
495.6,0.02878
495.8,0.02748
496.0,0.02656
496.2,0.02559
496.4,0.02473
496.6,0.02396
496.8,0.02331
497.0,0.02249
497.2,0.02214
497.4,0.02151
497.6,0.02091
497.8,0.02071
498.0,0.02037
498.2,0.01997
498.4,0.01978
498.6,0.01958
498.8,0.01944
499.0,0.01932
499.2,0.01942
499.4,0.01929
499.6,0.01928
499.8,0.01927
500.0,0.01949
500.2,0.01998
500.4,0.01993
500.6,0.02008
500.8,0.02022
501.0,0.02053
501.2,0.02065
501.4,0.02089
501.6,0.02101
501.8,0.0213
502.0,0.02155
502.2,0.02196
502.4,0.02231
502.6,0.02274
502.8,0.02324
503.0,0.02384
503.2,0.02437
503.4,0.02489
503.6,0.02563
503.8,0.02661
504.0,0.02705
504.2,0.02808
504.4,0.02893
504.6,0.03012
504.8,0.03116
505.0,0.03231
505.2,0.03331
505.4,0.03478
505.6,0.03618
505.8,0.03736
506.0,0.03898
506.2,0.04029
506.4,0.04148
506.6,0.0428
506.8,0.0441
507.0,0.04502
507.2,0.04578
507.4,0.04637
507.6,0.04687
507.8,0.04719
508.0,0.04691
508.2,0.04673
508.4,0.0461
508.6,0.04511
508.8,0.04392
509.0,0.04261
509.2,0.04103
509.4,0.03905
509.6,0.03718
509.8,0.03526
510.0,0.03342
510.2,0.03132
510.4,0.02944
510.6,0.02761
510.8,0.02571
511.0,0.02397
511.2,0.02241
511.4,0.02089
511.6,0.01952
511.8,0.01822
512.0,0.01704
512.2,0.01594
512.4,0.01501
512.6,0.0141
512.8,0.01337
513.0,0.01255
513.2,0.01197
513.4,0.01128
513.6,0.01082
513.8,0.01035
514.0,0.00985
514.2,0.00941
514.4,0.00899
514.6,0.00872
514.8,0.00834
515.0,0.00802
515.2,0.00782
515.4,0.00764
515.6,0.00749
515.8,0.00724
516.0,0.00709
516.2,0.00689
516.4,0.00683
516.6,0.00664
516.8,0.00655
517.0,0.00642
517.2,0.00638
517.4,0.00626
517.6,0.00622
517.8,0.00615
518.0,0.00608
518.2,0.006
518.4,0.00592
518.6,0.00593
518.8,0.00591
519.0,0.00589
519.2,0.00589
519.4,0.00586
519.6,0.00588
519.8,0.00587
520.0,0.00593
520.2,0.00603
520.4,0.00604
520.6,0.00604
520.8,0.00616
521.0,0.00621
521.2,0.00631
521.4,0.00638
521.6,0.00643
521.8,0.00662
522.0,0.00681
522.2,0.0069
522.4,0.00713
522.6,0.00732
522.8,0.00757
523.0,0.00785
523.2,0.00817
523.4,0.00846
523.6,0.00889
523.8,0.0092
524.0,0.00973
524.2,0.01012
524.4,0.01061
524.6,0.01109
524.8,0.01171
525.0,0.01224
525.2,0.01276
525.4,0.01326
525.6,0.01374
525.8,0.01422
526.0,0.01469
526.2,0.01521
526.4,0.01569
526.6,0.0162
526.8,0.01684
527.0,0.01749
527.2,0.01811
527.4,0.01906
527.6,0.01996
527.8,0.02098
528.0,0.02204
528.2,0.02333
528.4,0.02472
528.6,0.02626
528.8,0.02799
529.0,0.02991
529.2,0.03188
529.4,0.03407
529.6,0.03664
529.8,0.03946
530.0,0.04247
530.2,0.04551
530.4,0.04885
530.6,0.05257
530.8,0.05684
531.0,0.06131
531.2,0.06587
531.4,0.07102
531.6,0.07647
531.8,0.08224
532.0,0.0886
532.2,0.0949
532.4,0.10177
532.6,0.10897
532.8,0.11628
533.0,0.12366
533.2,0.13146
533.4,0.13924
533.6,0.14728
533.8,0.15566
534.0,0.16365
534.2,0.17106
534.4,0.17891
534.6,0.18601
534.8,0.19397
535.0,0.20159
535.2,0.20813
535.4,0.21466
535.6,0.22135
535.8,0.2276
536.0,0.2337
536.2,0.23798
536.4,0.2436
536.6,0.24765
536.8,0.25147
537.0,0.2555
537.2,0.26071
537.4,0.26497
537.6,0.27048
537.8,0.27416
538.0,0.28007
538.2,0.28426
538.4,0.29017
538.6,0.29592
538.8,0.30201
539.0,0.30695
539.2,0.31375
539.4,0.31903
539.6,0.32658
539.8,0.33379
540.0,0.34064
540.2,0.34964
540.4,0.35909
540.6,0.36816
540.8,0.37822
541.0,0.38876
541.2,0.39976
541.4,0.41104
541.6,0.42296
541.8,0.4358
542.0,0.44908
542.2,0.46478
542.4,0.48077
542.6,0.49992
542.8,0.51731
543.0,0.53468
543.2,0.55274
543.4,0.57317
543.6,0.5957
543.8,0.62197
544.0,0.64444
544.2,0.66949
544.4,0.69567
544.6,0.72094
544.8,0.74504
545.0,0.76903
545.2,0.79266
545.4,0.81665
545.6,0.83869
545.8,0.85809
546.0,0.87497
546.2,0.89184
546.4,0.90345
546.6,0.91417
546.8,0.92383
547.0,0.93184
547.2,0.93823
547.4,0.94705
547.6,0.95027
547.8,0.95242
548.0,0.95617
548.2,0.95823
548.4,0.95967
548.6,0.96076
548.8,0.96274
549.0,0.96387
549.2,0.96641
549.4,0.96519
549.6,0.96367
549.8,0.96612
550.0,0.96845
550.2,0.96928
550.4,0.97085
550.6,0.97107
550.8,0.97208
551.0,0.96999
551.2,0.96928
551.4,0.97119
551.6,0.97385
551.8,0.97373
552.0,0.97535
552.2,0.97515
552.4,0.97441
552.6,0.97087
552.8,0.97073
553.0,0.97056
553.2,0.97242
553.4,0.97212
553.6,0.97427
553.8,0.9747
554.0,0.97376
554.2,0.97293
554.4,0.97383
554.6,0.97382
554.8,0.97143
555.0,0.97313
555.2,0.97441
555.4,0.9739
555.6,0.97136
555.8,0.97262
556.0,0.97366
556.2,0.97342
556.4,0.97522
556.6,0.97643
556.8,0.9762
557.0,0.97754
557.2,0.97833
557.4,0.98002
557.6,0.98064
557.8,0.98115
558.0,0.98216
558.2,0.98282
558.4,0.98359
558.6,0.98468
558.8,0.98353
559.0,0.98279
559.2,0.98227
559.4,0.98171
559.6,0.98394
559.8,0.98227
560.0,0.98275
560.2,0.98001
560.4,0.97822
560.6,0.97982
560.8,0.97841
561.0,0.97775
561.2,0.97786
561.4,0.97762
561.6,0.97603
561.8,0.97232
562.0,0.97031
562.2,0.96844
562.4,0.97392
562.6,0.974
562.8,0.97291
563.0,0.97303
563.2,0.97383
563.4,0.97619
563.6,0.97382
563.8,0.97293
564.0,0.97104
564.2,0.97264
564.4,0.97124
564.6,0.96963
564.8,0.96977
565.0,0.97124
565.2,0.96988
565.4,0.96921
565.6,0.96959
565.8,0.97083
566.0,0.96985
566.2,0.96985
566.4,0.97035
566.6,0.97015
566.8,0.9702
567.0,0.97374
567.2,0.97448
567.4,0.97613
567.6,0.97484
567.8,0.97446
568.0,0.97385
568.2,0.97328
568.4,0.97205
568.6,0.97495
568.8,0.9732
569.0,0.9735
569.2,0.97447
569.4,0.97202
569.6,0.97339
569.8,0.97275
570.0,0.97223
570.2,0.97284
570.4,0.97265
570.6,0.9716
570.8,0.97062
571.0,0.97034
571.2,0.97172
571.4,0.96987
571.6,0.97041
571.8,0.9692
572.0,0.96947
572.2,0.97036
572.4,0.97062
572.6,0.97291
572.8,0.97099
573.0,0.97013
573.2,0.96734
573.4,0.96655
573.6,0.96752
573.8,0.96772
574.0,0.96498
574.2,0.96827
574.4,0.96753
574.6,0.96662
574.8,0.97044
575.0,0.97138
575.2,0.96926
575.4,0.97007
575.6,0.97265
575.8,0.9722
576.0,0.97186
576.2,0.97261
576.4,0.97194
576.6,0.97265
576.8,0.9734
577.0,0.97449
577.2,0.97462
577.4,0.9741
577.6,0.97716
577.8,0.97629
578.0,0.97682
578.2,0.97715
578.4,0.97557
578.6,0.9775
578.8,0.97508
579.0,0.97681
579.2,0.98113
579.4,0.98279
579.6,0.9833
579.8,0.98214
580.0,0.98243
580.2,0.98274
580.4,0.98101
580.6,0.97867
580.8,0.98128
581.0,0.98029
581.2,0.97707
581.4,0.97668
581.6,0.97873
581.8,0.97862
582.0,0.97839
582.2,0.97664
582.4,0.97956
582.6,0.97817
582.8,0.97491
583.0,0.97242
583.2,0.97016
583.4,0.97126
583.6,0.97202
583.8,0.97095
584.0,0.97119
584.2,0.96997
584.4,0.96966
584.6,0.9695
584.8,0.96632
585.0,0.96513
585.2,0.96672
585.4,0.9674
585.6,0.96509
585.8,0.96469
586.0,0.96464
586.2,0.96223
586.4,0.96116
586.6,0.96251
586.8,0.96197
587.0,0.96172
587.2,0.96202
587.4,0.95926
587.6,0.96008
587.8,0.96065
588.0,0.96177
588.2,0.96101
588.4,0.96012
588.6,0.96003
588.8,0.96223
589.0,0.9633
589.2,0.96409
589.4,0.96394
589.6,0.96281
589.8,0.96427
590.0,0.96494
590.2,0.96773
590.4,0.9702
590.6,0.96954
590.8,0.96977
591.0,0.96879
591.2,0.97011
591.4,0.96993
591.6,0.97125
591.8,0.96953
592.0,0.96991
592.2,0.9713
592.4,0.9713
592.6,0.9708
592.8,0.97395
593.0,0.97466
593.2,0.97326
593.4,0.9728
593.6,0.97549
593.8,0.9747
594.0,0.97484
594.2,0.97369
594.4,0.9772
594.6,0.97844
594.8,0.97704
595.0,0.97761
595.2,0.97524
595.4,0.97782
595.6,0.97807
595.8,0.97781
596.0,0.97696
596.2,0.9782
596.4,0.97752
596.6,0.97629
596.8,0.97591
597.0,0.97361
597.2,0.97231
597.4,0.96808
597.6,0.96779
597.8,0.96902
598.0,0.96972
598.2,0.97111
598.4,0.9702
598.6,0.96813
598.8,0.96874
599.0,0.96861
599.2,0.96758
599.4,0.96731
599.6,0.9684
599.8,0.96674
600.0,0.9661
600.2,0.9657
600.4,0.96401
600.6,0.96547
600.8,0.96801
601.0,0.96548
601.2,0.96859
601.4,0.96849
601.6,0.96741
601.8,0.96606
602.0,0.96628
602.2,0.96713
602.4,0.96583
602.6,0.96438
602.8,0.96615
603.0,0.96749
603.2,0.96757
603.4,0.96755
603.6,0.96847
603.8,0.96819
604.0,0.96792
604.2,0.96647
604.4,0.96661
604.6,0.96737
604.8,0.96978
605.0,0.97222
605.2,0.97294
605.4,0.9736
605.6,0.97511
605.8,0.97632
606.0,0.97765
606.2,0.97418
606.4,0.97418
606.6,0.97424
606.8,0.97395
607.0,0.9731
607.2,0.9738
607.4,0.97433
607.6,0.97569
607.8,0.97838
608.0,0.97518
608.2,0.97656
608.4,0.97678
608.6,0.97667
608.8,0.97484
609.0,0.97455
609.2,0.97519
609.4,0.97505
609.6,0.97324
609.8,0.97418
610.0,0.97499
610.2,0.97328
610.4,0.97527
610.6,0.97656
610.8,0.97699
611.0,0.97662
611.2,0.97587
611.4,0.97509
611.6,0.97644
611.8,0.97829
612.0,0.9782
612.2,0.97416
612.4,0.97556
612.6,0.97848
612.8,0.97646
613.0,0.97573
613.2,0.97542
613.4,0.97537
613.6,0.97352
613.8,0.97292
614.0,0.97561
614.2,0.97402
614.4,0.9737
614.6,0.97188
614.8,0.97067
615.0,0.96984
615.2,0.96999
615.4,0.96842
615.6,0.96808
615.8,0.96885
616.0,0.96837
616.2,0.96945
616.4,0.96751
616.6,0.96933
616.8,0.97064
617.0,0.97231
617.2,0.97042
617.4,0.96888
617.6,0.96588
617.8,0.964
618.0,0.96303
618.2,0.96301
618.4,0.96345
618.6,0.96403
618.8,0.96405
619.0,0.9639
619.2,0.959
619.4,0.95962
619.6,0.95991
619.8,0.96067
620.0,0.95749
620.2,0.95883
620.4,0.95837
620.6,0.95815
620.8,0.95896
621.0,0.95624
621.2,0.95656
621.4,0.95979
621.6,0.96042
621.8,0.96014
622.0,0.95799
622.2,0.95911
622.4,0.95845
622.6,0.95887
622.8,0.95891
623.0,0.95729
623.2,0.95516
623.4,0.95638
623.6,0.95714
623.8,0.9546
624.0,0.95807
624.2,0.95879
624.4,0.96015
624.6,0.95883
624.8,0.9568
625.0,0.95663
625.2,0.95863
625.4,0.95748
625.6,0.95891
625.8,0.95847
626.0,0.96054
626.2,0.96007
626.4,0.9589
626.6,0.96102
626.8,0.96192
627.0,0.95999
627.2,0.96112
627.4,0.96241
627.6,0.96351
627.8,0.96209
628.0,0.96515
628.2,0.96423
628.4,0.96317
628.6,0.9628
628.8,0.96367
629.0,0.96633
629.2,0.96596
629.4,0.96553
629.6,0.96743
629.8,0.9674
630.0,0.96784
630.2,0.96843
630.4,0.969
630.6,0.97043
630.8,0.97013
631.0,0.97077
631.2,0.96978
631.4,0.96911
631.6,0.96963
631.8,0.97031
632.0,0.97151
632.2,0.97087
632.4,0.97361
632.6,0.9731
632.8,0.97639
633.0,0.97685
633.2,0.97561
633.4,0.97367
633.6,0.97104
633.8,0.97049
634.0,0.97239
634.2,0.97287
634.4,0.97376
634.6,0.97465
634.8,0.97765
635.0,0.97748
635.2,0.97496
635.4,0.97358
635.6,0.97121
635.8,0.96997
636.0,0.96945
636.2,0.97036
636.4,0.96957
636.6,0.9718
636.8,0.97217
637.0,0.97261
637.2,0.97349
637.4,0.97114
637.6,0.97228
637.8,0.97357
638.0,0.9739
638.2,0.97476
638.4,0.97357
638.6,0.97061
638.8,0.96943
639.0,0.96983
639.2,0.96888
639.4,0.96921
639.6,0.96878
639.8,0.96742
640.0,0.96761
640.2,0.96777
640.4,0.97009
640.6,0.96955
640.8,0.966
641.0,0.96513
641.2,0.96408
641.4,0.96518
641.6,0.96519
641.8,0.96431
642.0,0.96772
642.2,0.96739
642.4,0.96708
642.6,0.96579
642.8,0.96517
643.0,0.96429
643.2,0.96406
643.4,0.96576
643.6,0.96527
643.8,0.96477
644.0,0.96607
644.2,0.96449
644.4,0.96473
644.6,0.96368
644.8,0.96226
645.0,0.96229
645.2,0.96223
645.4,0.96393
645.6,0.96516
645.8,0.96471
646.0,0.96514
646.2,0.96806
646.4,0.96949
646.6,0.96998
646.8,0.97202
647.0,0.97071
647.2,0.96942
647.4,0.9683
647.6,0.97057
647.8,0.97158
648.0,0.9701
648.2,0.97121
648.4,0.97112
648.6,0.97053
648.8,0.97387
649.0,0.97456
649.2,0.97604
649.4,0.97561
649.6,0.97334
649.8,0.97373
650.0,0.97517
650.2,0.97325
650.4,0.97318
650.6,0.97161
650.8,0.97269
651.0,0.97573
651.2,0.97651
651.4,0.97611
651.6,0.97667
651.8,0.97899
652.0,0.9809
652.2,0.98095
652.4,0.98173
652.6,0.98071
652.8,0.98137
653.0,0.9812
653.2,0.97907
653.4,0.97799
653.6,0.97928
653.8,0.98123
654.0,0.97998
654.2,0.97758
654.4,0.97681
654.6,0.9782
654.8,0.97779
655.0,0.97726
655.2,0.97582
655.4,0.97428
655.6,0.97309
655.8,0.9763
656.0,0.97753
656.2,0.97447
656.4,0.97391
656.6,0.97303
656.8,0.97293
657.0,0.97065
657.2,0.9677
657.4,0.96811
657.6,0.9683
657.8,0.96957
658.0,0.96865
658.2,0.9693
658.4,0.97074
658.6,0.97083
658.8,0.96827
659.0,0.96808
659.2,0.96692
659.4,0.96938
659.6,0.97022
659.8,0.96903
660.0,0.96451
660.2,0.96543
660.4,0.9651
660.6,0.96444
660.8,0.96323
661.0,0.96246
661.2,0.96174
661.4,0.95988
661.6,0.96038
661.8,0.96516
662.0,0.96461
662.2,0.96313
662.4,0.96361
662.6,0.96637
662.8,0.9681
663.0,0.96797
663.2,0.96671
663.4,0.96539
663.6,0.96567
663.8,0.96447
664.0,0.96506
664.2,0.96333
664.4,0.96609
664.6,0.96698
664.8,0.97017
665.0,0.97069
665.2,0.97025
665.4,0.97012
665.6,0.97565
665.8,0.979
666.0,0.97617
666.2,0.97635
666.4,0.97451
666.6,0.97694
666.8,0.9766
667.0,0.97457
667.2,0.97448
667.4,0.97885
667.6,0.97865
667.8,0.97763
668.0,0.97735
668.2,0.97628
668.4,0.97701
668.6,0.97755
668.8,0.9758
669.0,0.97626
669.2,0.97612
669.4,0.974
669.6,0.97501
669.8,0.9794
670.0,0.98057
670.2,0.97984
670.4,0.98081
670.6,0.98151
670.8,0.98203
671.0,0.98082
671.2,0.98215
671.4,0.98054
671.6,0.98068
671.8,0.98318
672.0,0.98158
672.2,0.98049
672.4,0.97977
672.6,0.98078
672.8,0.97962
673.0,0.98202
673.2,0.98251
673.4,0.98198
673.6,0.98106
673.8,0.97896
674.0,0.97765
674.2,0.9775
674.4,0.97692
674.6,0.97501
674.8,0.97412
675.0,0.97387
675.2,0.97671
675.4,0.9751
675.6,0.97403
675.8,0.97383
676.0,0.97144
676.2,0.97106
676.4,0.96979
676.6,0.96896
676.8,0.96974
677.0,0.96889
677.2,0.968
677.4,0.96636
677.6,0.96571
677.8,0.96357
678.0,0.9645
678.2,0.96368
678.4,0.96446
678.6,0.96595
678.8,0.96456
679.0,0.96438
679.2,0.96429
679.4,0.96191
679.6,0.95911
679.8,0.96153
680.0,0.96215
680.2,0.96412
680.4,0.96417
680.6,0.96482
680.8,0.9628
681.0,0.96142
681.2,0.95984
681.4,0.9591
681.6,0.95953
681.8,0.95851
682.0,0.95832
682.2,0.96096
682.4,0.95948
682.6,0.96076
682.8,0.96085
683.0,0.96152
683.2,0.96129
683.4,0.96123
683.6,0.95985
683.8,0.95815
684.0,0.95747
684.2,0.95576
684.4,0.95468
684.6,0.95673
684.8,0.96058
685.0,0.963
685.2,0.96594
685.4,0.96594
685.6,0.965
685.8,0.96567
686.0,0.96494
686.2,0.96628
686.4,0.96862
686.6,0.96874
686.8,0.96893
687.0,0.96655
687.2,0.96669
687.4,0.96872
687.6,0.9677
687.8,0.96786
688.0,0.96987
688.2,0.97222
688.4,0.97197
688.6,0.97259
688.8,0.97628
689.0,0.97717
689.2,0.97496
689.4,0.97567
689.6,0.97504
689.8,0.97575
690.0,0.97609
690.2,0.97661
690.4,0.97654
690.6,0.97562
690.8,0.9762
691.0,0.97558
691.2,0.97444
691.4,0.97495
691.6,0.97448
691.8,0.97623
692.0,0.97472
692.2,0.97311
692.4,0.97384
692.6,0.97572
692.8,0.9773
693.0,0.97616
693.2,0.97791
693.4,0.97872
693.6,0.97948
693.8,0.97843
694.0,0.97584
694.2,0.9748
694.4,0.97419
694.6,0.97403
694.8,0.976
695.0,0.9761
695.2,0.97452
695.4,0.97378
695.6,0.97564
695.8,0.97538
696.0,0.97853
696.2,0.97777
696.4,0.97635
696.6,0.97611
696.8,0.9758
697.0,0.97595
697.2,0.97494
697.4,0.97177
697.6,0.97042
697.8,0.96955
698.0,0.96945
698.2,0.96882
698.4,0.96753
698.6,0.96565
698.8,0.96533
699.0,0.96605
699.2,0.96696
699.4,0.96863
699.6,0.96831
699.8,0.96645
700.0,0.964
700.2,0.96418
700.4,0.96568
700.6,0.96516
700.8,0.9637
701.0,0.96401
701.2,0.96211
701.4,0.96052
701.6,0.96159
701.8,0.96441
702.0,0.96321
702.2,0.96271
702.4,0.96356
702.6,0.9607
702.8,0.95873
703.0,0.96177
703.2,0.96356
703.4,0.96336
703.6,0.96472
703.8,0.96384
704.0,0.96485
704.2,0.96667
704.4,0.96333
704.6,0.96164
704.8,0.95925
705.0,0.96173
705.2,0.96679
705.4,0.96876
705.6,0.96991
705.8,0.96882
706.0,0.96898
706.2,0.96527
706.4,0.96554
706.6,0.96639
706.8,0.96603
707.0,0.96571
707.2,0.96699
707.4,0.96489
707.6,0.9655
707.8,0.96703
708.0,0.96803
708.2,0.96662
708.4,0.96825
708.6,0.96684
708.8,0.97034
709.0,0.97253
709.2,0.97143
709.4,0.97223
709.6,0.97401
709.8,0.97645
710.0,0.97709
710.2,0.97793
710.4,0.97498
710.6,0.97382
710.8,0.97539
711.0,0.97582
711.2,0.9764
711.4,0.97738
711.6,0.97864
711.8,0.97867
712.0,0.97911
712.2,0.98235
712.4,0.98315
712.6,0.97976
712.8,0.97839
713.0,0.97951
713.2,0.97792
713.4,0.97498
713.6,0.97401
713.8,0.97435
714.0,0.97573
714.2,0.977
714.4,0.97735
714.6,0.97742
714.8,0.97829
715.0,0.97754
715.2,0.97783
715.4,0.97778
715.6,0.97682
715.8,0.97861
716.0,0.97764
716.2,0.97557
716.4,0.97697
716.6,0.97677
716.8,0.97571
717.0,0.97606
717.2,0.97619
717.4,0.97817
717.6,0.97801
717.8,0.97547
718.0,0.97394
718.2,0.97193
718.4,0.97199
718.6,0.97111
718.8,0.96786
719.0,0.97092
719.2,0.97049
719.4,0.97212
719.6,0.97496
719.8,0.97568
720.0,0.97247
720.2,0.97298
720.4,0.9733
720.6,0.97374
720.8,0.97362
721.0,0.97343
721.2,0.97284
721.4,0.97204
721.6,0.96725
721.8,0.96693
722.0,0.96599
722.2,0.96577
722.4,0.96356
722.6,0.96515
722.8,0.96465
723.0,0.96046
723.2,0.96009
723.4,0.96059
723.6,0.96171
723.8,0.96111
724.0,0.95961
724.2,0.96264
724.4,0.96448
724.6,0.96542
724.8,0.96686
725.0,0.96668
725.2,0.96308
725.4,0.96274
725.6,0.96309
725.8,0.96502
726.0,0.96507
726.2,0.96535
726.4,0.9658
726.6,0.96821
726.8,0.96973
727.0,0.96921
727.2,0.9699
727.4,0.96723
727.6,0.96335
727.8,0.96503
728.0,0.96573
728.2,0.96504
728.4,0.96034
728.6,0.96167
728.8,0.96506
729.0,0.9666
729.2,0.9668
729.4,0.96699
729.6,0.96371
729.8,0.96268
730.0,0.96507
730.2,0.96565
730.4,0.96857
730.6,0.97041
730.8,0.97018
731.0,0.96695
731.2,0.96195
731.4,0.9602
731.6,0.9621
731.8,0.96221
732.0,0.96343
732.2,0.96592
732.4,0.96844
732.6,0.96847
732.8,0.96618
733.0,0.96644
733.2,0.9668
733.4,0.96898
733.6,0.96806
733.8,0.96601
734.0,0.9667
734.2,0.96774
734.4,0.96579
734.6,0.967
734.8,0.96974
735.0,0.96698
735.2,0.96794
735.4,0.96834
735.6,0.97044
735.8,0.97514
736.0,0.97766
736.2,0.97834
736.4,0.97844
736.6,0.9779
736.8,0.97708
737.0,0.97403
737.2,0.97407
737.4,0.97365
737.6,0.97273
737.8,0.97679
738.0,0.97535
738.2,0.97412
738.4,0.97221
738.6,0.97535
738.8,0.97543
739.0,0.97164
739.2,0.97176
739.4,0.97026
739.6,0.97062
739.8,0.97024
740.0,0.97334
740.2,0.97488
740.4,0.97519
740.6,0.97352
740.8,0.97067
741.0,0.96978
741.2,0.96853
741.4,0.97176
741.6,0.97371
741.8,0.97301
742.0,0.9717
742.2,0.97011
742.4,0.97042
742.6,0.9716
742.8,0.97301
743.0,0.97371
743.2,0.97519
743.4,0.97354
743.6,0.97152
743.8,0.97393
744.0,0.97288
744.2,0.96967
744.4,0.96822
744.6,0.96802
744.8,0.97156
745.0,0.97238
745.2,0.96799
745.4,0.96777
745.6,0.96868
745.8,0.96862
746.0,0.96828
746.2,0.9664
746.4,0.96502
746.6,0.96487
746.8,0.9695
747.0,0.97051
747.2,0.9728
747.4,0.9711
747.6,0.9704
747.8,0.97024
748.0,0.9708
748.2,0.96905
748.4,0.9654
748.6,0.96395
748.8,0.96676
749.0,0.96901
749.2,0.97097
749.4,0.97172
749.6,0.97416
749.8,0.97286
750.0,0.97041
750.2,0.96801
750.4,0.97017
750.6,0.96986
750.8,0.96783
751.0,0.96812
751.2,0.96729
751.4,0.96737
751.6,0.96404
751.8,0.96399
752.0,0.96574
752.2,0.96569
752.4,0.96623
752.6,0.96675
752.8,0.96702
753.0,0.96597
753.2,0.96744
753.4,0.96773
753.6,0.96526
753.8,0.96646
754.0,0.96609
754.2,0.96582
754.4,0.96564
754.6,0.96629
754.8,0.97033
755.0,0.96834
755.2,0.96712
755.4,0.96846
755.6,0.96733
755.8,0.96794
756.0,0.96691
756.2,0.96851
756.4,0.97234
756.6,0.97256
756.8,0.97174
757.0,0.96929
757.2,0.96702
757.4,0.96918
757.6,0.97146
757.8,0.97157
758.0,0.96896
758.2,0.97176
758.4,0.97385
758.6,0.97423
758.8,0.97456
759.0,0.9769
759.2,0.97776
759.4,0.97597
759.6,0.97259
759.8,0.97065
760.0,0.975
760.2,0.97939
760.4,0.97977
760.6,0.97964
760.8,0.97876
761.0,0.97728
761.2,0.97533
761.4,0.97491
761.6,0.97475
761.8,0.97269
762.0,0.97317
762.2,0.97568
762.4,0.97281
762.6,0.97068
762.8,0.97326
763.0,0.97286
763.2,0.97085
763.4,0.96802
763.6,0.96774
763.8,0.96882
764.0,0.97226
764.2,0.96928
764.4,0.96913
764.6,0.97051
764.8,0.97206
765.0,0.97001
765.2,0.969
765.4,0.9683
765.6,0.97052
765.8,0.97127
766.0,0.97253
766.2,0.97107
766.4,0.97383
766.6,0.97237
766.8,0.97421
767.0,0.97638
767.2,0.97641
767.4,0.97445
767.6,0.97186
767.8,0.96854
768.0,0.96959
768.2,0.96829
768.4,0.96794
768.6,0.9702
768.8,0.97241
769.0,0.97096
769.2,0.97202
769.4,0.97313
769.6,0.97289
769.8,0.97803
770.0,0.97762
770.2,0.97541
770.4,0.97415
770.6,0.97239
770.8,0.97193
771.0,0.97312
771.2,0.97377
771.4,0.974
771.6,0.97453
771.8,0.97615
772.0,0.97695
772.2,0.97365
772.4,0.97264
772.6,0.97246
772.8,0.97465
773.0,0.97607
773.2,0.97563
773.4,0.97529
773.6,0.9738
773.8,0.97573
774.0,0.97553
774.2,0.97554
774.4,0.97334
774.6,0.97371
774.8,0.97469
775.0,0.97444
775.2,0.97314
775.4,0.97378
775.6,0.9716
775.8,0.96809
776.0,0.96833
776.2,0.96991
776.4,0.96984
776.6,0.96853
776.8,0.9685
777.0,0.96914
777.2,0.97031
777.4,0.97189
777.6,0.97176
777.8,0.9729
778.0,0.97085
778.2,0.97216
778.4,0.97238
778.6,0.97379
778.8,0.97147
779.0,0.97338
779.2,0.97201
779.4,0.96994
779.6,0.97096
779.8,0.97239
780.0,0.97313
780.2,0.974
780.4,0.97051
780.6,0.97085
780.8,0.96994
781.0,0.97094
781.2,0.97134
781.4,0.97106
781.6,0.9725
781.8,0.97217
782.0,0.97301
782.2,0.97262
782.4,0.97167
782.6,0.97541
782.8,0.97655
783.0,0.97791
783.2,0.97788
783.4,0.97612
783.6,0.97272
783.8,0.9737
784.0,0.97197
784.2,0.97289
784.4,0.97381
784.6,0.97022
784.8,0.97208
785.0,0.97225
785.2,0.97036
785.4,0.9742
785.6,0.97382
785.8,0.97463
786.0,0.97471
786.2,0.97646
786.4,0.97716
786.6,0.97474
786.8,0.97805
787.0,0.97918
787.2,0.97702
787.4,0.97411
787.6,0.97441
787.8,0.97499
788.0,0.97445
788.2,0.97469
788.4,0.97435
788.6,0.97446
788.8,0.9734
789.0,0.97223
789.2,0.97449
789.4,0.97553
789.6,0.97669
789.8,0.97577
790.0,0.97635
790.2,0.97503
790.4,0.97548
790.6,0.97706
790.8,0.97684
791.0,0.97656
791.2,0.97523
791.4,0.97716
791.6,0.97843
791.8,0.97992
792.0,0.97785
792.2,0.97797
792.4,0.9748
792.6,0.97163
792.8,0.97248
793.0,0.97661
793.2,0.97678
793.4,0.97285
793.6,0.97293
793.8,0.97439
794.0,0.97616
794.2,0.97863
794.4,0.97926
794.6,0.97652
794.8,0.9747
795.0,0.97281
795.2,0.97558
795.4,0.97507
795.6,0.97502
795.8,0.97651
796.0,0.97585
796.2,0.97461
796.4,0.97667
796.6,0.97566
796.8,0.97405
797.0,0.97397
797.2,0.97553
797.4,0.97688
797.6,0.97393
797.8,0.97212
798.0,0.97137
798.2,0.96839
798.4,0.9667
798.6,0.96531
798.8,0.9687
799.0,0.96948
799.2,0.96931
799.4,0.96861
799.6,0.96995
799.8,0.97034
800.0,0.97035
800.2,0.9715
800.4,0.97452
800.6,0.97343
800.8,0.97348
801.0,0.97289
801.2,0.97265
801.4,0.97515
801.6,0.98058
801.8,0.97712
802.0,0.9743
802.2,0.96958
802.4,0.96872
802.6,0.96677
802.8,0.96682
803.0,0.96764
803.2,0.96718
803.4,0.96459
803.6,0.96296
803.8,0.96588
804.0,0.9677
804.2,0.96617
804.4,0.9665
804.6,0.96882
804.8,0.96605
805.0,0.96144
805.2,0.95913
805.4,0.96238
805.6,0.96585
805.8,0.96598
806.0,0.96629
806.2,0.96679
806.4,0.96691
806.6,0.9658
806.8,0.96441
807.0,0.96465
807.2,0.96699
807.4,0.96971
807.6,0.96962
807.8,0.96987
808.0,0.96957
808.2,0.96793
808.4,0.96851
808.6,0.96803
808.8,0.96484
809.0,0.96196
809.2,0.95875
809.4,0.9583
809.6,0.96007
809.8,0.96074
810.0,0.96252
810.2,0.96051
810.4,0.96086
810.6,0.96514
810.8,0.96769
811.0,0.96586
811.2,0.96796
811.4,0.9661
811.6,0.96944
811.8,0.97071
812.0,0.97149
812.2,0.97382
812.4,0.97568
812.6,0.97654
812.8,0.97574
813.0,0.97406
813.2,0.9689
813.4,0.97064
813.6,0.97378
813.8,0.97513
814.0,0.97121
814.2,0.96873
814.4,0.97025
814.6,0.97169
814.8,0.97353
815.0,0.97289
815.2,0.9746
815.4,0.9748
815.6,0.97221
815.8,0.97178
816.0,0.97268
816.2,0.97115
816.4,0.97234
816.6,0.97262
816.8,0.97028
817.0,0.9682
817.2,0.96837
817.4,0.97138
817.6,0.97442
817.8,0.97604
818.0,0.97595
818.2,0.97531
818.4,0.97489
818.6,0.97435
818.8,0.97709
819.0,0.97883
819.2,0.98027
819.4,0.97755
819.6,0.97568
819.8,0.97392
820.0,0.9715
820.2,0.97234
820.4,0.9746
820.6,0.97557
820.8,0.97506
821.0,0.97373
821.2,0.97473
821.4,0.97744
821.6,0.98014
821.8,0.98065
822.0,0.97897
822.2,0.97857
822.4,0.97477
822.6,0.97877
822.8,0.98326
823.0,0.98379
823.2,0.97943
823.4,0.97852
823.6,0.98244
823.8,0.98204
824.0,0.98021
824.2,0.98032
824.4,0.98247
824.6,0.98369
824.8,0.97956
825.0,0.97668
825.2,0.97861
825.4,0.97905
825.6,0.97806
825.8,0.97869
826.0,0.98002
826.2,0.97906
826.4,0.97949
826.6,0.97989
826.8,0.9818
827.0,0.97785
827.2,0.97805
827.4,0.9785
827.6,0.97819
827.8,0.98054
828.0,0.98304
828.2,0.98169
828.4,0.97891
828.6,0.97709
828.8,0.97738
829.0,0.97695
829.2,0.97956
829.4,0.98093
829.6,0.98193
829.8,0.98187
830.0,0.98063
830.2,0.97889
830.4,0.97779
830.6,0.97868
830.8,0.97992
831.0,0.9819
831.2,0.98177
831.4,0.98245
831.6,0.98251
831.8,0.97944
832.0,0.97831
832.2,0.97829
832.4,0.97679
832.6,0.97596
832.8,0.97558
833.0,0.97695
833.2,0.97863
833.4,0.97716
833.6,0.97281
833.8,0.97153
834.0,0.96986
834.2,0.967
834.4,0.9684
834.6,0.96929
834.8,0.96929
835.0,0.96977
835.2,0.97093
835.4,0.97315
835.6,0.9716
835.8,0.97066
836.0,0.97075
836.2,0.97166
836.4,0.97287
836.6,0.97302
836.8,0.97208
837.0,0.97175
837.2,0.9705
837.4,0.96967
837.6,0.96723
837.8,0.96675
838.0,0.96747
838.2,0.96714
838.4,0.9693
838.6,0.96907
838.8,0.96437
839.0,0.96225
839.2,0.95934
839.4,0.96
839.6,0.9637
839.8,0.96595
840.0,0.96576
840.2,0.96533
840.4,0.96748
840.6,0.96771
840.8,0.96739
841.0,0.96657
841.2,0.96533
841.4,0.96513
841.6,0.96479
841.8,0.96611
842.0,0.96652
842.2,0.96438
842.4,0.96308
842.6,0.96502
842.8,0.96443
843.0,0.96209
843.2,0.96222
843.4,0.95996
843.6,0.96129
843.8,0.96239
844.0,0.96185
844.2,0.96005
844.4,0.96241
844.6,0.96328
844.8,0.96293
845.0,0.96018
845.2,0.96387
845.4,0.9637
845.6,0.96417
845.8,0.96423
846.0,0.96497
846.2,0.96688
846.4,0.96753
846.6,0.9669
846.8,0.96584
847.0,0.96854
847.2,0.96826
847.4,0.9688
847.6,0.96935
847.8,0.96812
848.0,0.96687
848.2,0.96682
848.4,0.96688
848.6,0.96627
848.8,0.96915
849.0,0.97117
849.2,0.96629
849.4,0.96519
849.6,0.96602
849.8,0.96524
850.0,0.96522
850.2,0.9681
850.4,0.97038
850.6,0.97104
850.8,0.97177
851.0,0.97088
851.2,0.97111
851.4,0.97132
851.6,0.9705
851.8,0.97192
852.0,0.97596
852.2,0.97363
852.4,0.97357
852.6,0.97679
852.8,0.97937
853.0,0.97779
853.2,0.97538
853.4,0.9722
853.6,0.96991
853.8,0.97193
854.0,0.9714
854.2,0.97232
854.4,0.97391
854.6,0.97741
854.8,0.97923
855.0,0.97778
855.2,0.977
855.4,0.97742
855.6,0.98168
855.8,0.98365
856.0,0.98197
856.2,0.98439
856.4,0.98502
856.6,0.98821
856.8,0.98698
857.0,0.98754
857.2,0.98707
857.4,0.98475
857.6,0.98097
857.8,0.98258
858.0,0.98396
858.2,0.98532
858.4,0.98586
858.6,0.98633
858.8,0.98704
859.0,0.98699
859.2,0.98621
859.4,0.9875
859.6,0.98742
859.8,0.98993
860.0,0.99158
860.2,0.98589
860.4,0.985
860.6,0.98315
860.8,0.98318
861.0,0.98367
861.2,0.98335
861.4,0.98258
861.6,0.98174
861.8,0.98114
862.0,0.98138
862.2,0.98139
862.4,0.97967
862.6,0.97865
862.8,0.97999
863.0,0.98164
863.2,0.98253
863.4,0.98447
863.6,0.98456
863.8,0.98188
864.0,0.98113
864.2,0.97963
864.4,0.97926
864.6,0.97771
864.8,0.97658
865.0,0.97589
865.2,0.97692
865.4,0.97856
865.6,0.97802
865.8,0.97796
866.0,0.9759
866.2,0.97421
866.4,0.97319
866.6,0.97309
866.8,0.97229
867.0,0.97053
867.2,0.973
867.4,0.97353
867.6,0.97538
867.8,0.97765
868.0,0.97601
868.2,0.97487
868.4,0.97321
868.6,0.97264
868.8,0.97228
869.0,0.96865
869.2,0.97024
869.4,0.97323
869.6,0.9741
869.8,0.97163
870.0,0.97314
870.2,0.96949
870.4,0.96808
870.6,0.96872
870.8,0.96739
871.0,0.96648
871.2,0.9672
871.4,0.96427
871.6,0.9624
871.8,0.96046
872.0,0.96361
872.2,0.96402
872.4,0.96297
872.6,0.96443
872.8,0.96632
873.0,0.96851
873.2,0.96668
873.4,0.96545
873.6,0.96627
873.8,0.96549
874.0,0.96578
874.2,0.96855
874.4,0.96893
874.6,0.96616
874.8,0.96114
875.0,0.95968
875.2,0.95858
875.4,0.95961
875.6,0.96298
875.8,0.96537
876.0,0.96251
876.2,0.96513
876.4,0.96553
876.6,0.96573
876.8,0.96372
877.0,0.96335
877.2,0.96566
877.4,0.96779
877.6,0.96432
877.8,0.96216
878.0,0.96418
878.2,0.96581
878.4,0.9685
878.6,0.97061
878.8,0.96863
879.0,0.96546
879.2,0.96187
879.4,0.9609
879.6,0.96195
879.8,0.96252
880.0,0.96247
880.2,0.96673
880.4,0.96645
880.6,0.96593
880.8,0.96432
881.0,0.96479
881.2,0.96658
881.4,0.96791
881.6,0.96649
881.8,0.96316
882.0,0.96359
882.2,0.96582
882.4,0.9647
882.6,0.96446
882.8,0.96483
883.0,0.96746
883.2,0.9671
883.4,0.96761
883.6,0.96939
883.8,0.96766
884.0,0.96929
884.2,0.97076
884.4,0.96925
884.6,0.96894
884.8,0.97307
885.0,0.97675
885.2,0.97605
885.4,0.97417
885.6,0.97177
885.8,0.9717
886.0,0.97065
886.2,0.97141
886.4,0.97093
886.6,0.96887
886.8,0.97035
887.0,0.97591
887.2,0.97523
887.4,0.97512
887.6,0.97531
887.8,0.97563
888.0,0.97676
888.2,0.97382
888.4,0.9742
888.6,0.97406
888.8,0.97531
889.0,0.97506
889.2,0.97582
889.4,0.97571
889.6,0.97478
889.8,0.97347
890.0,0.97213
890.2,0.97197
890.4,0.97178
890.6,0.97417
890.8,0.97647
891.0,0.97972
891.2,0.97997
891.4,0.97759
891.6,0.97922
891.8,0.98159
892.0,0.9834
892.2,0.9812
892.4,0.98
892.6,0.97873
892.8,0.97986
893.0,0.98447
893.2,0.98252
893.4,0.98345
893.6,0.98364
893.8,0.98426
894.0,0.98221
894.2,0.98057
894.4,0.98002
894.6,0.98103
894.8,0.98133
895.0,0.98198
895.2,0.97922
895.4,0.97848
895.6,0.97998
895.8,0.98117
896.0,0.98236
896.2,0.98224
896.4,0.98215
896.6,0.98404
896.8,0.98185
897.0,0.98346
897.2,0.98473
897.4,0.98383
897.6,0.98313
897.8,0.98358
898.0,0.98434
898.2,0.98412
898.4,0.98587
898.6,0.98731
898.8,0.98597
899.0,0.98636
899.2,0.98441
899.4,0.98314
899.6,0.98436
899.8,0.98328
900.0,0.98172
900.2,0.97884
900.4,0.97781
900.6,0.97812
900.8,0.98203
901.0,0.98285
901.2,0.98366
901.4,0.98408
901.6,0.98348
901.8,0.98279
902.0,0.98328
902.2,0.98079
902.4,0.98306
902.6,0.98475
902.8,0.98337
903.0,0.98539
903.2,0.98387
903.4,0.98188
903.6,0.98184
903.8,0.98044
904.0,0.98083
904.2,0.98254
904.4,0.98085
904.6,0.98439
904.8,0.98307
905.0,0.98146
905.2,0.98153
905.4,0.9828
905.6,0.9852
905.8,0.98565
906.0,0.98681
906.2,0.98666
906.4,0.98841
906.6,0.9895
906.8,0.9885
907.0,0.98942
907.2,0.9862
907.4,0.98453
907.6,0.98484
907.8,0.98353
908.0,0.98204
908.2,0.97805
908.4,0.98104
908.6,0.98184
908.8,0.98268
909.0,0.98139
909.2,0.97916
909.4,0.97806
909.6,0.97657
909.8,0.97374
910.0,0.97346
910.2,0.97134
910.4,0.96982
910.6,0.96953
910.8,0.9716
911.0,0.97467
911.2,0.97353
911.4,0.97404
911.6,0.97513
911.8,0.97625
912.0,0.97629
912.2,0.97554
912.4,0.97279
912.6,0.97406
912.8,0.97128
913.0,0.96763
913.2,0.97037
913.4,0.9755
913.6,0.97852
913.8,0.97956
914.0,0.98019
914.2,0.97964
914.4,0.97741
914.6,0.9754
914.8,0.97512
915.0,0.97766
915.2,0.97769
915.4,0.97576
915.6,0.97191
915.8,0.97202
916.0,0.97394
916.2,0.97694
916.4,0.97567
916.6,0.97365
916.8,0.97565
917.0,0.97826
917.2,0.98047
917.4,0.9777
917.6,0.97584
917.8,0.97381
918.0,0.97463
918.2,0.97098
918.4,0.97032
918.6,0.97019
918.8,0.96906
919.0,0.96652
919.2,0.96757
919.4,0.96776
919.6,0.96924
919.8,0.96955
920.0,0.96827
920.2,0.96744
920.4,0.96826
920.6,0.96696
920.8,0.96327
921.0,0.96343
921.2,0.96801
921.4,0.97088
921.6,0.9698
921.8,0.96871
922.0,0.96695
922.2,0.96733
922.4,0.96635
922.6,0.96746
922.8,0.97145
923.0,0.96801
923.2,0.96545
923.4,0.96477
923.6,0.96793
923.8,0.96826
924.0,0.9678
924.2,0.96675
924.4,0.96173
924.6,0.96084
924.8,0.96168
925.0,0.96254
925.2,0.96086
925.4,0.9611
925.6,0.96354
925.8,0.96532
926.0,0.96757
926.2,0.96843
926.4,0.96725
926.6,0.96656
926.8,0.966
927.0,0.96644
927.2,0.96087
927.4,0.95499
927.6,0.95656
927.8,0.9596
928.0,0.95895
928.2,0.96045
928.4,0.95892
928.6,0.9562
928.8,0.95889
929.0,0.95957
929.2,0.959
929.4,0.96126
929.6,0.96352
929.8,0.96385
930.0,0.96556
930.2,0.96672
930.4,0.9688
930.6,0.96881
930.8,0.967
931.0,0.96623
931.2,0.96987
931.4,0.97225
931.6,0.97133
931.8,0.97057
932.0,0.97134
932.2,0.96917
932.4,0.96687
932.6,0.96447
932.8,0.96457
933.0,0.96797
933.2,0.96614
933.4,0.96512
933.6,0.96619
933.8,0.96577
934.0,0.96269
934.2,0.96397
934.4,0.96449
934.6,0.9665
934.8,0.96738
935.0,0.96648
935.2,0.96879
935.4,0.96903
935.6,0.96665
935.8,0.96441
936.0,0.96457
936.2,0.96617
936.4,0.96809
936.6,0.96886
936.8,0.96816
937.0,0.97072
937.2,0.96977
937.4,0.96865
937.6,0.97076
937.8,0.97079
938.0,0.97194
938.2,0.97103
938.4,0.97334
938.6,0.97589
938.8,0.9757
939.0,0.97726
939.2,0.97394
939.4,0.97478
939.6,0.97499
939.8,0.97217
940.0,0.96823
940.2,0.96921
940.4,0.97131
940.6,0.96984
940.8,0.96902
941.0,0.96996
941.2,0.97174
941.4,0.97277
941.6,0.97537
941.8,0.9761
942.0,0.97695
942.2,0.97444
942.4,0.97164
942.6,0.97291
942.8,0.97247
943.0,0.97189
943.2,0.97272
943.4,0.97438
943.6,0.97542
943.8,0.97453
944.0,0.97895
944.2,0.98128
944.4,0.98022
944.6,0.97944
944.8,0.97905
945.0,0.9813
945.2,0.98017
945.4,0.9793
945.6,0.97979
945.8,0.98142
946.0,0.98077
946.2,0.97697
946.4,0.97448
946.6,0.97367
946.8,0.97441
947.0,0.97487
947.2,0.97431
947.4,0.97346
947.6,0.97412
947.8,0.9744
948.0,0.9756
948.2,0.97205
948.4,0.97045
948.6,0.97077
948.8,0.96975
949.0,0.96737
949.2,0.96613
949.4,0.96711
949.6,0.96612
949.8,0.96181
950.0,0.96
950.2,0.95957
950.4,0.96167
950.6,0.96158
950.8,0.96402
951.0,0.96487
951.2,0.96416
951.4,0.96105
951.6,0.95951
951.8,0.95748
952.0,0.95631
952.2,0.95729
952.4,0.95377
952.6,0.9513
952.8,0.9493
953.0,0.94728
953.2,0.94683
953.4,0.94479
953.6,0.94083
953.8,0.9408
954.0,0.93966
954.2,0.93645
954.4,0.93418
954.6,0.93075
954.8,0.93008
955.0,0.92965
955.2,0.92769
955.4,0.92534
955.6,0.92425
955.8,0.9225
956.0,0.91903
956.2,0.91601
956.4,0.91357
956.6,0.91298
956.8,0.90871
957.0,0.90643
957.2,0.90368
957.4,0.89706
957.6,0.89205
957.8,0.8892
958.0,0.88831
958.2,0.88786
958.4,0.88482
958.6,0.8817
958.8,0.8793
959.0,0.87737
959.2,0.87487
959.4,0.86945
959.6,0.86447
959.8,0.86072
960.0,0.8539