#Typical Measured Spectrum of Semrock FF635-Di01 Optical Filter	
#For wavelengths between 320 and 1120 nm, values near or below 3e-7 (Optical Density 6.5) are measurement noise limited.
#For wavelengths < 320 nm and > 1120 nm, values near or below 3e-6 (Optical Density 5.5) are measurement noise limited. 
#Data format:  Wavelength (nm) <tab> Transmission (0 to 1)
#Type: dichroic,
#Name: Semrock FF635-FDi01
wavelength,transmission
500.0,0.01354
500.2,0.01293
500.4,0.01232
500.6,0.01189
500.8,0.01136
501.0,0.01094
501.2,0.01059
501.4,0.01028
501.6,0.01007
501.8,0.00981
502.0,0.00971
502.2,0.00951
502.4,0.00941
502.6,0.00931
502.8,0.00936
503.0,0.00927
503.2,0.00935
503.4,0.00944
503.6,0.00956
503.8,0.00973
504.0,0.00985
504.2,0.01007
504.4,0.01032
504.6,0.01057
504.8,0.01085
505.0,0.0111
505.2,0.01143
505.4,0.01185
505.6,0.01219
505.8,0.01252
506.0,0.01281
506.2,0.01306
506.4,0.01318
506.6,0.01336
506.8,0.01346
507.0,0.01343
507.2,0.0134
507.4,0.01318
507.6,0.01282
507.8,0.01246
508.0,0.01205
508.2,0.01155
508.4,0.01109
508.6,0.01056
508.8,0.00991
509.0,0.00931
509.2,0.00881
509.4,0.00812
509.6,0.00756
509.8,0.00702
510.0,0.00652
510.2,0.00602
510.4,0.00569
510.6,0.00532
510.8,0.00498
511.0,0.00467
511.2,0.0044
511.4,0.00415
511.6,0.00393
511.8,0.00372
512.0,0.00353
512.2,0.00336
512.4,0.00321
512.6,0.00302
512.8,0.00294
513.0,0.00284
513.2,0.00279
513.4,0.00268
513.6,0.0026
513.8,0.00253
514.0,0.00249
514.2,0.00241
514.4,0.00242
514.6,0.00238
514.8,0.00235
515.0,0.00235
515.2,0.00237
515.4,0.00236
515.6,0.00234
515.8,0.00235
516.0,0.00238
516.2,0.00241
516.4,0.00248
516.6,0.00253
516.8,0.00254
517.0,0.00255
517.2,0.0026
517.4,0.00269
517.6,0.00276
517.8,0.00285
518.0,0.00297
518.2,0.00299
518.4,0.00307
518.6,0.00323
518.8,0.00331
519.0,0.00338
519.2,0.0035
519.4,0.00361
519.6,0.00378
519.8,0.00384
520.0,0.00395
520.2,0.00399
520.4,0.0041
520.6,0.00416
520.8,0.00424
521.0,0.00424
521.2,0.00427
521.4,0.00427
521.6,0.00423
521.8,0.00424
522.0,0.00417
522.2,0.00415
522.4,0.00403
522.6,0.00396
522.8,0.00386
523.0,0.00377
523.2,0.00371
523.4,0.00358
523.6,0.0035
523.8,0.00335
524.0,0.00324
524.2,0.00312
524.4,0.00304
524.6,0.00292
524.8,0.00281
525.0,0.00273
525.2,0.00265
525.4,0.00255
525.6,0.00251
525.8,0.0024
526.0,0.00233
526.2,0.00229
526.4,0.00219
526.6,0.0022
526.8,0.00212
527.0,0.00208
527.2,0.00204
527.4,0.00197
527.6,0.00197
527.8,0.00195
528.0,0.00191
528.2,0.0019
528.4,0.00186
528.6,0.00184
528.8,0.00185
529.0,0.00177
529.2,0.00176
529.4,0.00171
529.6,0.00174
529.8,0.00176
530.0,0.00178
530.2,0.00171
530.4,0.00169
530.6,0.00173
530.8,0.00173
531.0,0.00173
531.2,0.00173
531.4,0.00174
531.6,0.00174
531.8,0.00171
532.0,0.00172
532.2,0.00172
532.4,0.00179
532.6,0.00179
532.8,0.00177
533.0,0.00182
533.2,0.00185
533.4,0.00186
533.6,0.00187
533.8,0.00191
534.0,0.00192
534.2,0.00195
534.4,0.00203
534.6,0.00206
534.8,0.00208
535.0,0.00214
535.2,0.00221
535.4,0.00229
535.6,0.00235
535.8,0.00245
536.0,0.00252
536.2,0.00264
536.4,0.00277
536.6,0.00282
536.8,0.00299
537.0,0.00309
537.2,0.00326
537.4,0.00336
537.6,0.00349
537.8,0.00365
538.0,0.0038
538.2,0.00398
538.4,0.00418
538.6,0.00431
538.8,0.00449
539.0,0.00468
539.2,0.00483
539.4,0.00491
539.6,0.00501
539.8,0.00506
540.0,0.00507
540.2,0.00508
540.4,0.00498
540.6,0.0049
540.8,0.00474
541.0,0.00453
541.2,0.00431
541.4,0.00409
541.6,0.00384
541.8,0.00357
542.0,0.00332
542.2,0.00307
542.4,0.00285
542.6,0.00263
542.8,0.00246
543.0,0.00221
543.2,0.00203
543.4,0.00185
543.6,0.0017
543.8,0.0016
544.0,0.00145
544.2,0.00132
544.4,0.00128
544.6,0.00117
544.8,0.00111
545.0,0.00104
545.2,9.7341e-04
545.4,9.0508e-04
545.6,8.8389e-04
545.8,8.3026e-04
546.0,8.1166e-04
546.2,7.464e-04
546.4,7.3221e-04
546.6,6.9418e-04
546.8,6.9181e-04
547.0,6.4844e-04
547.2,6.6212e-04
547.4,6.2674e-04
547.6,5.9018e-04
547.8,5.9141e-04
548.0,5.994e-04
548.2,5.7786e-04
548.4,5.6986e-04
548.6,5.4748e-04
548.8,5.243e-04
549.0,5.3245e-04
549.2,5.559e-04
549.4,5.5071e-04
549.6,5.3184e-04
549.8,5.2407e-04
550.0,4.9094e-04
550.2,5.5044e-04
550.4,5.4874e-04
550.6,5.3612e-04
550.8,5.503e-04
551.0,5.1167e-04
551.2,5.6074e-04
551.4,5.6788e-04
551.6,5.5783e-04
551.8,6.0198e-04
552.0,5.7592e-04
552.2,5.9091e-04
552.4,6.4985e-04
552.6,6.4581e-04
552.8,6.5166e-04
553.0,7.0254e-04
553.2,6.9696e-04
553.4,7.1733e-04
553.6,7.6531e-04
553.8,8.3527e-04
554.0,8.5493e-04
554.2,8.936e-04
554.4,9.4762e-04
554.6,0.001
554.8,0.00107
555.0,0.00112
555.2,0.00117
555.4,0.00123
555.6,0.00128
555.8,0.00136
556.0,0.00143
556.2,0.0015
556.4,0.0016
556.6,0.00168
556.8,0.00171
557.0,0.00182
557.2,0.00187
557.4,0.00193
557.6,0.00199
557.8,0.00198
558.0,0.00204
558.2,0.00203
558.4,0.00204
558.6,0.00203
558.8,0.002
559.0,0.002
559.2,0.00198
559.4,0.00188
559.6,0.00185
559.8,0.00179
560.0,0.0017
560.2,0.00166
560.4,0.00156
560.6,0.00157
560.8,0.00148
561.0,0.00139
561.2,0.00133
561.4,0.00127
561.6,0.00124
561.8,0.00118
562.0,0.00115
562.2,0.00109
562.4,0.00109
562.6,0.00101
562.8,9.923e-04
563.0,9.6567e-04
563.2,9.0918e-04
563.4,9.3436e-04
563.6,8.8675e-04
563.8,8.847e-04
564.0,8.6736e-04
564.2,8.7133e-04
564.4,8.5082e-04
564.6,8.358e-04
564.8,8.2535e-04
565.0,8.5543e-04
565.2,8.3115e-04
565.4,8.232e-04
565.6,8.2028e-04
565.8,8.5878e-04
566.0,8.161e-04
566.2,8.408e-04
566.4,8.7369e-04
566.6,8.8555e-04
566.8,8.899e-04
567.0,9.11e-04
567.2,9.4453e-04
567.4,9.8149e-04
567.6,0.001
567.8,0.00105
568.0,0.00106
568.2,0.00115
568.4,0.00118
568.6,0.00124
568.8,0.00134
569.0,0.00138
569.2,0.00148
569.4,0.00159
569.6,0.00169
569.8,0.0018
570.0,0.00197
570.2,0.00213
570.4,0.00231
570.6,0.00249
570.8,0.00268
571.0,0.00293
571.2,0.00318
571.4,0.00348
571.6,0.00381
571.8,0.00418
572.0,0.0046
572.2,0.00513
572.4,0.00559
572.6,0.00612
572.8,0.0066
573.0,0.00708
573.2,0.00751
573.4,0.00794
573.6,0.00828
573.8,0.00851
574.0,0.00866
574.2,0.00868
574.4,0.0086
574.6,0.00845
574.8,0.00821
575.0,0.00788
575.2,0.00737
575.4,0.00699
575.6,0.00652
575.8,0.00607
576.0,0.00555
576.2,0.00509
576.4,0.00473
576.6,0.00433
576.8,0.00402
577.0,0.00369
577.2,0.00342
577.4,0.00317
577.6,0.00297
577.8,0.00282
578.0,0.00266
578.2,0.00251
578.4,0.00239
578.6,0.00228
578.8,0.00218
579.0,0.00211
579.2,0.00201
579.4,0.00195
579.6,0.00192
579.8,0.00184
580.0,0.00181
580.2,0.00176
580.4,0.00176
580.6,0.00172
580.8,0.00174
581.0,0.00171
581.2,0.00168
581.4,0.00173
581.6,0.00173
581.8,0.00175
582.0,0.00173
582.2,0.00175
582.4,0.00178
582.6,0.00184
582.8,0.00188
583.0,0.00192
583.2,0.00199
583.4,0.00206
583.6,0.00213
583.8,0.00219
584.0,0.0023
584.2,0.00239
584.4,0.00252
584.6,0.00264
584.8,0.00276
585.0,0.00293
585.2,0.00305
585.4,0.00328
585.6,0.00348
585.8,0.0037
586.0,0.00393
586.2,0.00426
586.4,0.00462
586.6,0.00503
586.8,0.00555
587.0,0.00609
587.2,0.00669
587.4,0.00734
587.6,0.00809
587.8,0.00892
588.0,0.00978
588.2,0.01077
588.4,0.01168
588.6,0.01259
588.8,0.01344
589.0,0.01423
589.2,0.01497
589.4,0.01542
589.6,0.01564
589.8,0.01573
590.0,0.01563
590.2,0.01534
590.4,0.01483
590.6,0.01424
590.8,0.01347
591.0,0.01262
591.2,0.01174
591.4,0.01081
591.6,0.00995
591.8,0.009
592.0,0.00823
592.2,0.00753
592.4,0.00685
592.6,0.00631
592.8,0.00574
593.0,0.00527
593.2,0.00488
593.4,0.00452
593.6,0.00422
593.8,0.00398
594.0,0.00368
594.2,0.00346
594.4,0.00332
594.6,0.00314
594.8,0.00296
595.0,0.00284
595.2,0.00271
595.4,0.00264
595.6,0.00252
595.8,0.00242
596.0,0.00237
596.2,0.0023
596.4,0.00225
596.6,0.00218
596.8,0.00216
597.0,0.00207
597.2,0.00203
597.4,0.00201
597.6,0.002
597.8,0.00196
598.0,0.0019
598.2,0.00193
598.4,0.00189
598.6,0.00189
598.8,0.00192
599.0,0.00188
599.2,0.0019
599.4,0.00189
599.6,0.00195
599.8,0.00189
600.0,0.0019
600.2,0.00191
600.4,0.00194
600.6,0.00198
600.8,0.00199
601.0,0.00201
601.2,0.00204
601.4,0.0021
601.6,0.00212
601.8,0.00216
602.0,0.00219
602.2,0.00226
602.4,0.0023
602.6,0.00236
602.8,0.00239
603.0,0.00251
603.2,0.00256
603.4,0.00264
603.6,0.00272
603.8,0.00281
604.0,0.00289
604.2,0.003
604.4,0.00312
604.6,0.00322
604.8,0.00334
605.0,0.00348
605.2,0.0036
605.4,0.00379
605.6,0.00394
605.8,0.0041
606.0,0.00433
606.2,0.00452
606.4,0.00475
606.6,0.00497
606.8,0.00522
607.0,0.00551
607.2,0.00575
607.4,0.00609
607.6,0.00637
607.8,0.00675
608.0,0.00839
608.2,0.00997
608.4,0.01043
608.6,0.01087
608.8,0.01132
609.0,0.01177
609.2,0.01237
609.4,0.0128
609.6,0.01336
609.8,0.01395
610.0,0.01452
610.2,0.01523
610.4,0.0159
610.6,0.01655
610.8,0.01723
611.0,0.01775
611.2,0.01844
611.4,0.01906
611.6,0.01967
611.8,0.02038
612.0,0.02096
612.2,0.02172
612.4,0.02218
612.6,0.02281
612.8,0.02337
613.0,0.0239
613.2,0.02434
613.4,0.0247
613.6,0.02509
613.8,0.0254
614.0,0.02558
614.2,0.02592
614.4,0.02614
614.6,0.02637
614.8,0.02648
615.0,0.02667
615.2,0.02686
615.4,0.02686
615.6,0.02701
615.8,0.02727
616.0,0.02733
616.2,0.02749
616.4,0.02766
616.6,0.02766
616.8,0.02783
617.0,0.02791
617.2,0.02825
617.4,0.02839
617.6,0.0286
617.8,0.02879
618.0,0.02902
618.2,0.02927
618.4,0.02954
618.6,0.02993
618.8,0.03024
619.0,0.03084
619.2,0.0313
619.4,0.03178
619.6,0.03239
619.8,0.03309
620.0,0.03361
620.2,0.03421
620.4,0.03497
620.6,0.03594
620.8,0.03685
621.0,0.03781
621.2,0.03879
621.4,0.03969
621.6,0.04101
621.8,0.04244
622.0,0.04381
622.2,0.04498
622.4,0.04668
622.6,0.04841
622.8,0.05036
623.0,0.05233
623.2,0.05435
623.4,0.05664
623.6,0.05919
623.8,0.06193
624.0,0.06479
624.2,0.06821
624.4,0.07148
624.6,0.07489
624.8,0.07883
625.0,0.08282
625.2,0.08728
625.4,0.09185
625.6,0.09681
625.8,0.10216
626.0,0.10832
626.2,0.11461
626.4,0.12114
626.6,0.12784
626.8,0.13556
627.0,0.1444
627.2,0.15286
627.4,0.16206
627.6,0.17218
627.8,0.18211
628.0,0.19258
628.2,0.20459
628.4,0.21733
628.6,0.22957
628.8,0.24154
629.0,0.25498
629.2,0.27025
629.4,0.28419
629.6,0.30018
629.8,0.31499
630.0,0.33225
630.2,0.3503
630.4,0.36941
630.6,0.38964
630.8,0.41121
631.0,0.43303
631.2,0.45501
631.4,0.48088
631.6,0.50906
631.8,0.53732
632.0,0.56808
632.2,0.59991
632.4,0.63202
632.6,0.66613
632.8,0.69868
633.0,0.73229
633.2,0.76379
633.4,0.79519
633.6,0.82091
633.8,0.84605
634.0,0.86644
634.2,0.88556
634.4,0.89835
634.6,0.91136
634.8,0.92062
635.0,0.92952
635.2,0.93859
635.4,0.93926
635.6,0.94013
635.8,0.9406
636.0,0.94038
636.2,0.93997
636.4,0.94099
636.6,0.9384
636.8,0.94106
637.0,0.94013
637.2,0.94161
637.4,0.94345
637.6,0.94298
637.8,0.94397
638.0,0.94489
638.2,0.94669
638.4,0.94935
638.6,0.95287
638.8,0.95185
639.0,0.95102
639.2,0.94855
639.4,0.9495
639.6,0.95043
639.8,0.95095
640.0,0.95055
640.2,0.95152
640.4,0.95136
640.6,0.95389
640.8,0.95209
641.0,0.94939
641.2,0.94734
641.4,0.94486
641.6,0.94422
641.8,0.94305
642.0,0.94414
642.2,0.94487
642.4,0.94368
642.6,0.94214
642.8,0.94113
643.0,0.94045
643.2,0.93733
643.4,0.93651
643.6,0.93745
643.8,0.9354
644.0,0.93424
644.2,0.93611
644.4,0.93606
644.6,0.93819
644.8,0.93993
645.0,0.93707
645.2,0.93652
645.4,0.93779
645.6,0.93974
645.8,0.93845
646.0,0.93784
646.2,0.93835
646.4,0.94195
646.6,0.94525
646.8,0.94816
647.0,0.94677
647.2,0.94406
647.4,0.9414
647.6,0.94078
647.8,0.9431
648.0,0.9436
648.2,0.94336
648.4,0.9457
648.6,0.94643
648.8,0.94368
649.0,0.94267
649.2,0.9404
649.4,0.94024
649.6,0.93998
649.8,0.93915
650.0,0.93882
650.2,0.9391
650.4,0.93825
650.6,0.93783
650.8,0.93604
651.0,0.93775
651.2,0.93862
651.4,0.94122
651.6,0.94245
651.8,0.94192
652.0,0.94107
652.2,0.94294
652.4,0.94156
652.6,0.94343
652.8,0.93921
653.0,0.94002
653.2,0.94064
653.4,0.94068
653.6,0.94008
653.8,0.94282
654.0,0.94469
654.2,0.94278
654.4,0.94079
654.6,0.94107
654.8,0.94115
655.0,0.94292
655.2,0.94492
655.4,0.94441
655.6,0.94356
655.8,0.94573
656.0,0.94715
656.2,0.94907
656.4,0.94732
656.6,0.94623
656.8,0.94521
657.0,0.94387
657.2,0.94503
657.4,0.94132
657.6,0.94174
657.8,0.94033
658.0,0.94092
658.2,0.93976
658.4,0.94008
658.6,0.93968
658.8,0.94043
659.0,0.93807
659.2,0.936
659.4,0.93556
659.6,0.93688
659.8,0.93935
660.0,0.94044
660.2,0.93908
660.4,0.93887
660.6,0.93902
660.8,0.93837
661.0,0.93601
661.2,0.93638
661.4,0.93564
661.6,0.93398
661.8,0.93318
662.0,0.93685
662.2,0.93615
662.4,0.93435
662.6,0.93645
662.8,0.93792
663.0,0.93822
663.2,0.93708
663.4,0.94009
663.6,0.93839
663.8,0.93882
664.0,0.93913
664.2,0.93821
664.4,0.93445
664.6,0.93317
664.8,0.93591
665.0,0.93608
665.2,0.93673
665.4,0.93774
665.6,0.93718
665.8,0.94334
666.0,0.94722
666.2,0.94587
666.4,0.94613
666.6,0.94599
666.8,0.94787
667.0,0.94598
667.2,0.94403
667.4,0.94405
667.6,0.94831
667.8,0.94984
668.0,0.94963
668.2,0.94709
668.4,0.94614
668.6,0.94414
668.8,0.94535
669.0,0.94536
669.2,0.94586
669.4,0.947
669.6,0.94468
669.8,0.94692
670.0,0.9473
670.2,0.94596
670.4,0.94654
670.6,0.94703
670.8,0.94742
671.0,0.9489
671.2,0.94888
671.4,0.94699
671.6,0.94473
671.8,0.94463
672.0,0.94647
672.2,0.94623
672.4,0.94459
672.6,0.94608
672.8,0.94695
673.0,0.94715
673.2,0.94821
673.4,0.94777
673.6,0.94765
673.8,0.94909
674.0,0.94698
674.2,0.94686
674.4,0.94684
674.6,0.94769
674.8,0.94894
675.0,0.94473
675.2,0.94179
675.4,0.94356
675.6,0.94506
675.8,0.94445
676.0,0.94417
676.2,0.94567
676.4,0.94653
676.6,0.94631
676.8,0.94602
677.0,0.947
677.2,0.94432
677.4,0.94356
677.6,0.94419
677.8,0.94689
678.0,0.94759
678.2,0.94782
678.4,0.94819
678.6,0.95014
678.8,0.95117
679.0,0.95128
679.2,0.95177
679.4,0.95335
679.6,0.95277
679.8,0.95257
680.0,0.95105
680.2,0.95117
680.4,0.95235
680.6,0.95387
680.8,0.95764
681.0,0.95459
681.2,0.95416
681.4,0.95333
681.6,0.95536
681.8,0.95713
682.0,0.95559
682.2,0.95372
682.4,0.95557
682.6,0.95455
682.8,0.95663
683.0,0.95857
683.2,0.95837
683.4,0.95615
683.6,0.95659
683.8,0.95584
684.0,0.95392
684.2,0.95237
684.4,0.9518
684.6,0.95249
684.8,0.95319
685.0,0.94918
685.2,0.94807
685.4,0.95082
685.6,0.95225
685.8,0.95218
686.0,0.95059
686.2,0.95056
686.4,0.94919
686.6,0.94988
686.8,0.94837
687.0,0.94692
687.2,0.9448
687.4,0.94573
687.6,0.94574
687.8,0.94313
688.0,0.94112
688.2,0.93913
688.4,0.9376
688.6,0.93677
688.8,0.93745
689.0,0.93645
689.2,0.93742
689.4,0.93574
689.6,0.93718
689.8,0.93684
690.0,0.93586
690.2,0.93304
690.4,0.92927
690.6,0.9318
690.8,0.92915
691.0,0.9285
691.2,0.92825
691.4,0.92797
691.6,0.93106
691.8,0.92981
692.0,0.92975
692.2,0.92916
692.4,0.92528
692.6,0.92311
692.8,0.92624
693.0,0.93124
693.2,0.92948
693.4,0.93132
693.6,0.93184
693.8,0.93296
694.0,0.93084
694.2,0.9291
694.4,0.92989
694.6,0.93353
694.8,0.93351
695.0,0.93543
695.2,0.93832
695.4,0.93953
695.6,0.93934
695.8,0.9398
696.0,0.93966
696.2,0.94336
696.4,0.9448
696.6,0.9465
696.8,0.94716
697.0,0.94668
697.2,0.94857
697.4,0.94848
697.6,0.94951
697.8,0.94883
698.0,0.94665
698.2,0.94716
698.4,0.95023
698.6,0.94929
698.8,0.94864
699.0,0.94929
699.2,0.95159
699.4,0.95423
699.6,0.95438
699.8,0.9551
700.0,0.95224
700.2,0.95044
700.4,0.95071
700.6,0.95059
700.8,0.95327
701.0,0.95425
701.2,0.95515
701.4,0.95351
701.6,0.94806
701.8,0.94587
702.0,0.95124
702.2,0.94915
702.4,0.95022
702.6,0.95049
702.8,0.94876
703.0,0.94551
703.2,0.94883
703.4,0.95133
703.6,0.95115
703.8,0.95054
704.0,0.95209
704.2,0.94944
704.4,0.95032
704.6,0.95085
704.8,0.94904
705.0,0.94615
705.2,0.94693
705.4,0.94649
705.6,0.94698
705.8,0.94831
706.0,0.94755
706.2,0.94595
706.4,0.94358
706.6,0.94255
706.8,0.94371
707.0,0.94211
707.2,0.94102
707.4,0.94255
707.6,0.94264
707.8,0.9417
708.0,0.94074
708.2,0.94274
708.4,0.94199
708.6,0.94215
708.8,0.94011
709.0,0.94122
709.2,0.94298
709.4,0.94252
709.6,0.94363
709.8,0.94495
710.0,0.94701
710.2,0.94966
710.4,0.95031
710.6,0.94795
710.8,0.94623
711.0,0.94742
711.2,0.94791
711.4,0.94944
711.6,0.94989
711.8,0.95128
712.0,0.95172
712.2,0.95084
712.4,0.95192
712.6,0.95277
712.8,0.95097
713.0,0.95016
713.2,0.95246
713.4,0.95161
713.6,0.95079
713.8,0.95208
714.0,0.95344
714.2,0.95469
714.4,0.95197
714.6,0.95325
714.8,0.95244
715.0,0.95188
715.2,0.95195
715.4,0.95428
715.6,0.95213
715.8,0.95189
716.0,0.9518
716.2,0.95242
716.4,0.95132
716.6,0.95347
716.8,0.95255
717.0,0.95075
717.2,0.95056
717.4,0.95189
717.6,0.95426
717.8,0.95546
718.0,0.95441
718.2,0.95253
718.4,0.95026
718.6,0.95179
718.8,0.95148
719.0,0.95017
719.2,0.94967
719.4,0.94919
719.6,0.94883
719.8,0.9493
720.0,0.95047
720.2,0.94796
720.4,0.94646
720.6,0.94679
720.8,0.94753
721.0,0.94715
721.2,0.94486
721.4,0.94616
721.6,0.94903
721.8,0.94498
722.0,0.94607
722.2,0.94707
722.4,0.94609
722.6,0.94564
722.8,0.94747
723.0,0.94609
723.2,0.94594
723.4,0.9444
723.6,0.94156
723.8,0.94205
724.0,0.94215
724.2,0.93993
724.4,0.94072
724.6,0.94086
724.8,0.94042
725.0,0.94248
725.2,0.94389
725.4,0.94181
725.6,0.9414
725.8,0.94146
726.0,0.94234
726.2,0.94208
726.4,0.94149
726.6,0.94118
726.8,0.94409
727.0,0.94748
727.2,0.94924
727.4,0.94984
727.6,0.95087
727.8,0.94946
728.0,0.94855
728.2,0.94558
728.4,0.9451
728.6,0.94311
728.8,0.94356
729.0,0.94645
729.2,0.94725
729.4,0.94674
729.6,0.948
729.8,0.94933
730.0,0.94711
730.2,0.9468
730.4,0.94741
730.6,0.95136
730.8,0.95275
731.0,0.95488
731.2,0.95549
731.4,0.95281
731.6,0.95089
731.8,0.95048
732.0,0.95162
732.2,0.95237
732.4,0.9526
732.6,0.95465
732.8,0.95563
733.0,0.95609
733.2,0.95465
733.4,0.9534
733.6,0.95514
733.8,0.9553
734.0,0.95342
734.2,0.95399
734.4,0.954
734.6,0.95284
734.8,0.95391
735.0,0.95781
735.2,0.95418
735.4,0.95208
735.6,0.95239
735.8,0.95213
736.0,0.95457
736.2,0.95647
736.4,0.95746
736.6,0.95849
736.8,0.95514
737.0,0.95472
737.2,0.95245
737.4,0.95062
737.6,0.94931
737.8,0.94892
738.0,0.95335
738.2,0.95354
738.4,0.95329
738.6,0.95268
738.8,0.95117
739.0,0.94973
739.2,0.94914
739.4,0.9465
739.6,0.94777
739.8,0.94621
740.0,0.94758
740.2,0.94884
740.4,0.94682
740.6,0.94722
740.8,0.9475
741.0,0.94479
741.2,0.94245
741.4,0.94486
741.6,0.94429
741.8,0.94506
742.0,0.94182
742.2,0.93877
742.4,0.93675
742.6,0.93734
742.8,0.93854
743.0,0.9384
743.2,0.93961
743.4,0.94059
743.6,0.94042
743.8,0.94061
744.0,0.94165
744.2,0.93919
744.4,0.93609
744.6,0.93443
744.8,0.93678
745.0,0.93896
745.2,0.93754
745.4,0.93766
745.6,0.93688
745.8,0.93594
746.0,0.93709
746.2,0.93533
746.4,0.93273
746.6,0.9334
746.8,0.935
747.0,0.93511
747.2,0.93617
747.4,0.93511
747.6,0.93714
747.8,0.93635
748.0,0.93782
748.2,0.93741
748.4,0.93431
748.6,0.93464
748.8,0.93497
749.0,0.93489
749.2,0.93811
749.4,0.93976
749.6,0.94035
749.8,0.94026
750.0,0.94205
750.2,0.94042
750.4,0.942
750.6,0.94365
750.8,0.94379
751.0,0.94109
751.2,0.9414
751.4,0.94106
751.6,0.94157
751.8,0.93952
752.0,0.94077
752.2,0.93919
752.4,0.94026
752.6,0.9396
752.8,0.94057
753.0,0.9399
753.2,0.94043
753.4,0.94173
753.6,0.94246
753.8,0.94322
754.0,0.94461
754.2,0.94088
754.4,0.94061
754.6,0.93958
754.8,0.94094
755.0,0.94011
755.2,0.9404
755.4,0.93907
755.6,0.93675
755.8,0.93719
756.0,0.93881
756.2,0.93994
756.4,0.94253
756.6,0.94155
756.8,0.94236
757.0,0.94131
757.2,0.93955
757.4,0.9393
757.6,0.94045
757.8,0.93935
758.0,0.93792
758.2,0.93788
758.4,0.93842
758.6,0.93945
758.8,0.93882
759.0,0.93936
759.2,0.94087
759.4,0.94173
759.6,0.93946
759.8,0.93767
760.0,0.94113
760.2,0.94379
760.4,0.94252
760.6,0.94231
760.8,0.94192
761.0,0.94001
761.2,0.94092
761.4,0.93947
761.6,0.93822
761.8,0.93658
762.0,0.93725
762.2,0.93828
762.4,0.936
762.6,0.93647
762.8,0.9385
763.0,0.93964
763.2,0.94013
763.4,0.93614
763.6,0.93431
763.8,0.9344
764.0,0.93644
764.2,0.93606
764.4,0.93683
764.6,0.93565
764.8,0.9367
765.0,0.9356
765.2,0.93459
765.4,0.93408
765.6,0.93738
765.8,0.93948
766.0,0.93701
766.2,0.93718
766.4,0.93724
766.6,0.93561
766.8,0.93806
767.0,0.93986
767.2,0.94221
767.4,0.9429
767.6,0.94159
767.8,0.94151
768.0,0.94313
768.2,0.94322
768.4,0.94119
768.6,0.94008
768.8,0.94295
769.0,0.94144
769.2,0.94104
769.4,0.94005
769.6,0.93875
769.8,0.94001
770.0,0.94394
770.2,0.94268
770.4,0.94245
770.6,0.94103
770.8,0.94192
771.0,0.94462
771.2,0.94605
771.4,0.94612
771.6,0.94592
771.8,0.94592
772.0,0.94668
772.2,0.94586
772.4,0.94617
772.6,0.94556
772.8,0.94815
773.0,0.94931
773.2,0.94922
773.4,0.94928
773.6,0.94641
773.8,0.947
774.0,0.9447
774.2,0.94343
774.4,0.94432
774.6,0.94724
774.8,0.94866
775.0,0.94885
775.2,0.94485
775.4,0.94476
775.6,0.94508
775.8,0.94319
776.0,0.94625
776.2,0.94703
776.4,0.94602
776.6,0.94535
776.8,0.94488
777.0,0.9466
777.2,0.94853
777.4,0.94905
777.6,0.94944
777.8,0.94917
778.0,0.95109
778.2,0.95041
778.4,0.94865
778.6,0.94962
778.8,0.94956
779.0,0.95128
779.2,0.95036
779.4,0.94728
779.6,0.94417
779.8,0.94485
780.0,0.94523
780.2,0.94391
780.4,0.94367
780.6,0.9443
780.8,0.94562
781.0,0.94576
781.2,0.94581
781.4,0.94432
781.6,0.94412
781.8,0.94556
782.0,0.94409
782.2,0.94459
782.4,0.94539
782.6,0.94684
782.8,0.94762
783.0,0.94501
783.2,0.94448
783.4,0.94563
783.6,0.94787
783.8,0.94955
784.0,0.94763
784.2,0.94595
784.4,0.94513
784.6,0.94514
784.8,0.94603
785.0,0.94593
785.2,0.94427
785.4,0.94539
785.6,0.94295
785.8,0.94429
786.0,0.94627
786.2,0.94853
786.4,0.94945
786.6,0.9454
786.8,0.94693
787.0,0.95078
787.2,0.94883
787.4,0.94636
787.6,0.94422
787.8,0.94267
788.0,0.94105
788.2,0.94031
788.4,0.94081
788.6,0.94131
788.8,0.94206
789.0,0.93764
789.2,0.93546
789.4,0.93684
789.6,0.93829
789.8,0.94035
790.0,0.94141
790.2,0.94132
790.4,0.94186
790.6,0.94103
790.8,0.94316
791.0,0.9437
791.2,0.94091
791.4,0.94239
791.6,0.94144
791.8,0.94059
792.0,0.93962
792.2,0.93879
792.4,0.93861
792.6,0.93659
792.8,0.93671
793.0,0.93821
793.2,0.93746
793.4,0.93722
793.6,0.93584
793.8,0.93625
794.0,0.93787
794.2,0.94132
794.4,0.94296
794.6,0.94065
794.8,0.94149
795.0,0.93919
795.2,0.94039
795.4,0.93911
795.6,0.93987
795.8,0.94143
796.0,0.9419
796.2,0.93873
796.4,0.93886
796.6,0.93765
796.8,0.93657
797.0,0.93863
797.2,0.93807
797.4,0.94078
797.6,0.94166
797.8,0.94102
798.0,0.9402
798.2,0.93867
798.4,0.93746
798.6,0.93595
798.8,0.93864
799.0,0.94245
799.2,0.94281
799.4,0.94002
799.6,0.93911
799.8,0.93991
800.0,0.93926
800.2,0.93963
800.4,0.94279
800.6,0.94386
800.8,0.94302
801.0,0.94499
801.2,0.94277
801.4,0.94339
801.6,0.94863
801.8,0.94792
802.0,0.94742
802.2,0.94567
802.4,0.94533
802.6,0.94493
802.8,0.94507
803.0,0.94627
803.2,0.94575
803.4,0.94505
803.6,0.94284
803.8,0.94172
804.0,0.94343
804.2,0.94109
804.4,0.93888
804.6,0.94041
804.8,0.93956
805.0,0.94042
805.2,0.93843
805.4,0.93782
805.6,0.94006
805.8,0.94106
806.0,0.94251
806.2,0.94226
806.4,0.94126
806.6,0.94116
806.8,0.94268
807.0,0.94277
807.2,0.94231
807.4,0.94506
807.6,0.94595
807.8,0.94682
808.0,0.94768
808.2,0.94843
808.4,0.94643
808.6,0.94647
808.8,0.9469
809.0,0.94504
809.2,0.94631
809.4,0.94539
809.6,0.94269
809.8,0.94024
810.0,0.94123
810.2,0.94086
810.4,0.93936
810.6,0.94095
810.8,0.94212
811.0,0.93921
811.2,0.93987
811.4,0.94213
811.6,0.94119
811.8,0.94214
812.0,0.94242
812.2,0.94488
812.4,0.94693
812.6,0.94793
812.8,0.9493
813.0,0.94973
813.2,0.94857
813.4,0.94332
813.6,0.94562
813.8,0.94731
814.0,0.94873
814.2,0.94797
814.4,0.94853
814.6,0.94734
814.8,0.94667
815.0,0.94831
815.2,0.94927
815.4,0.95222
815.6,0.95073
815.8,0.94967
816.0,0.94617
816.2,0.9461
816.4,0.94554
816.6,0.94556
816.8,0.9444
817.0,0.94358
817.2,0.94304
817.4,0.94429
817.6,0.94345
817.8,0.94147
818.0,0.94086
818.2,0.9437
818.4,0.94365
818.6,0.94385
818.8,0.94437
819.0,0.947
819.2,0.95125
819.4,0.95117
819.6,0.95125
819.8,0.94786
820.0,0.94307
820.2,0.93884
820.4,0.94011
820.6,0.9432
820.8,0.94513
821.0,0.94502
821.2,0.9453
821.4,0.94426
821.6,0.9454
821.8,0.94824
822.0,0.94619
822.2,0.94605
822.4,0.94499
822.6,0.94016
822.8,0.94057
823.0,0.94355
823.2,0.94513
823.4,0.94323
823.6,0.94356
823.8,0.94251
824.0,0.93901
824.2,0.94335
824.4,0.94477
824.6,0.94517
824.8,0.94319
825.0,0.94033
825.2,0.93835
825.4,0.93791
825.6,0.93883
825.8,0.93766
826.0,0.93809
826.2,0.93878
826.4,0.94187
826.6,0.9422
826.8,0.9405
827.0,0.93929
827.2,0.93821
827.4,0.94035
827.6,0.93881
827.8,0.94093
828.0,0.9429
828.2,0.94303
828.4,0.94241
828.6,0.94047
828.8,0.94054
829.0,0.94003
829.2,0.93906
829.4,0.93989
829.6,0.9416
829.8,0.94346
830.0,0.94362
830.2,0.94188
830.4,0.94146
830.6,0.94578
830.8,0.94376
831.0,0.9457
831.2,0.94901
831.4,0.94812
831.6,0.94932
831.8,0.9463
832.0,0.94208
832.2,0.94112
832.4,0.94286
832.6,0.9406
832.8,0.93634
833.0,0.93675
833.2,0.93584
833.4,0.93536
833.6,0.93502
833.8,0.92941
834.0,0.92545
834.2,0.92172
834.4,0.91687
834.6,0.91685
834.8,0.91185
835.0,0.91138
835.2,0.90993
835.4,0.90491
835.6,0.89743
835.8,0.89196
836.0,0.88853
836.2,0.88403
836.4,0.87858
836.6,0.8737
836.8,0.86592
837.0,0.8595
837.2,0.85113
837.4,0.84355
837.6,0.83717
837.8,0.82782
838.0,0.81774
838.2,0.81196
838.4,0.80402
838.6,0.79583
838.8,0.78518
839.0,0.77625
839.2,0.76541
839.4,0.75453
839.6,0.7422
839.8,0.73345
840.0,0.72498