## Type: filter
## Name: Semrock FF01-530/55
#Typical Measured Spectrum of Semrock FF01-530/55 Optical Filter	
#For wavelengths between 320 and 1120 nm, values near or below 3e-7 (Optical Density 6.5) are measurement noise limited.
#For wavelengths < 320 nm and > 1120 nm, values near or below 3e-6 (Optical Density 5.5) are measurement noise limited. 
#Data format:  Wavelength (nm) <tab> Transmission (0 to 1)
wavelength,transmission
391.0, 1.7695e-05
391.2, 1.5834e-05
391.4, 1.4168e-05
391.6, 1.2677e-05
391.8, 1.1344e-05
392.0, 1.015e-05
392.2, 9.0824e-06
392.4, 8.1269e-06
392.6, 7.2719e-06
392.8, 6.5069e-06
393.0, 5.8224e-06
393.2, 5.2098e-06
393.4, 4.6618e-06
393.6, 4.1713e-06
393.8, 3.7325e-06
394.0, 3.3398e-06
394.2, 2.9885e-06
394.4, 2.6741e-06
394.6, 2.3928e-06
394.8, 2.141e-06
395.0, 1.9158e-06
395.2, 1.8695e-06
395.4, 1.8546e-06
395.6, 1.8399e-06
395.8, 1.8253e-06
396.0, 1.8108e-06
396.2, 1.7965e-06
396.4, 1.7822e-06
396.6, 1.7681e-06
396.8, 1.7541e-06
397.0, 1.7401e-06
397.2, 1.7263e-06
397.4, 1.7126e-06
397.6, 1.699e-06
397.8, 1.6856e-06
398.0, 1.6722e-06
398.2, 1.6589e-06
398.4, 1.6458e-06
398.6, 1.6327e-06
398.8, 1.6198e-06
399.0, 1.6069e-06
399.2, 1.5942e-06
399.4, 1.5815e-06
399.6, 1.569e-06
399.8, 1.5565e-06
400.0, 1.5442e-06
400.2, 1.3375e-06
400.4, 1.1268e-06
400.6, 9.4921e-07
400.8, 7.9964e-07
401.0, 6.7364e-07
401.2, 5.6749e-07
401.4, 4.7807e-07
401.6, 4.0274e-07
401.8, 3.3928e-07
402.0, 2.8582e-07
402.2, 2.4078e-07
402.4, 2.0284e-07
402.6, 1.7088e-07
402.8, 1.4395e-07
403.0, 1.2127e-07
403.2, 1.0216e-07
403.4, 8.6064e-08
403.6, 7.2502e-08
403.8, 6.1078e-08
404.0, 5.1454e-08
404.2, 4.3346e-08
404.4, 3.6516e-08
404.6, 3.0762e-08
404.8, 2.5915e-08
405.0, 2.1831e-08
405.2, 2.2244e-08
405.4, 2.3631e-08
405.6, 2.5104e-08
405.8, 2.6669e-08
406.0, 2.8332e-08
406.2, 3.0098e-08
406.4, 3.1974e-08
406.6, 3.3967e-08
406.8, 3.6085e-08
407.0, 3.8335e-08
407.2, 4.0725e-08
407.4, 4.3263e-08
407.6, 4.5961e-08
407.8, 4.8826e-08
408.0, 5.187e-08
408.2, 5.5103e-08
408.4, 5.8539e-08
408.6, 6.2188e-08
408.8, 6.6065e-08
409.0, 7.0184e-08
409.2, 7.4559e-08
409.4, 7.9207e-08
409.6, 8.4145e-08
409.8, 8.9391e-08
410.0, 9.4964e-08
410.2, 9.7533e-08
410.4, 9.9457e-08
410.6, 1.0142e-07
410.8, 1.0342e-07
411.0, 1.0546e-07
411.2, 1.0754e-07
411.4, 1.0966e-07
411.6, 1.1182e-07
411.8, 1.1403e-07
412.0, 1.1628e-07
412.2, 1.1857e-07
412.4, 1.2091e-07
412.6, 1.2329e-07
412.8, 1.2572e-07
413.0, 1.282e-07
413.2, 1.3073e-07
413.4, 1.3331e-07
413.6, 1.3594e-07
413.8, 1.3862e-07
414.0, 1.4135e-07
414.2, 1.4414e-07
414.4, 1.4698e-07
414.6, 1.4988e-07
414.8, 1.5284e-07
415.0, 1.5585e-07
415.2, 1.5893e-07
415.4, 1.6206e-07
415.6, 1.6526e-07
415.8, 1.6851e-07
416.0, 1.7184e-07
416.2, 1.7523e-07
416.4, 1.7868e-07
416.6, 1.8221e-07
416.8, 1.82e-07
417.0, 1.6491e-07
417.2, 1.4942e-07
417.4, 1.3539e-07
417.6, 1.2268e-07
417.8, 1.1116e-07
418.0, 1.0072e-07
418.2, 9.1265e-08
418.4, 8.2696e-08
418.6, 7.4931e-08
418.8, 6.7895e-08
419.0, 6.152e-08
419.2, 5.5743e-08
419.4, 5.0509e-08
419.6, 4.5766e-08
419.8, 4.1469e-08
420.0, 3.7575e-08
420.2, 3.4047e-08
420.4, 3.2487e-08
420.6, 3.2939e-08
420.8, 3.3397e-08
421.0, 3.3861e-08
421.2, 3.4332e-08
421.4, 3.481e-08
421.6, 3.5294e-08
421.8, 3.5785e-08
422.0, 3.6282e-08
422.2, 3.6787e-08
422.4, 3.7299e-08
422.6, 3.7817e-08
422.8, 3.8343e-08
423.0, 3.8877e-08
423.2, 3.9417e-08
423.4, 3.9966e-08
423.6, 4.0521e-08
423.8, 4.1085e-08
424.0, 4.1656e-08
424.2, 4.2236e-08
424.4, 4.2823e-08
424.6, 4.3419e-08
424.8, 4.4023e-08
425.0, 4.4635e-08
425.2, 4.5256e-08
425.4, 4.5885e-08
425.6, 4.7256e-08
425.8, 5.6023e-08
426.0, 6.6415e-08
426.2, 7.8735e-08
426.4, 9.3341e-08
426.6, 1.1066e-07
426.8, 1.3118e-07
427.0, 1.5552e-07
427.2, 1.8437e-07
427.4, 2.1857e-07
427.6, 2.5912e-07
427.8, 3.0718e-07
428.0, 3.6417e-07
428.2, 4.3173e-07
428.4, 5.1181e-07
428.6, 4.8923e-07
428.8, 4.6125e-07
429.0, 4.3488e-07
429.2, 4.1001e-07
429.4, 3.8657e-07
429.6, 3.6446e-07
429.8, 3.4363e-07
430.0, 3.2398e-07
430.2, 3.0545e-07
430.4, 2.8799e-07
430.6, 2.7152e-07
430.8, 2.56e-07
431.0, 2.4136e-07
431.2, 2.2756e-07
431.4, 2.1455e-07
431.6, 2.0228e-07
431.8, 1.9071e-07
432.0, 1.8195e-07
432.2, 1.7988e-07
432.4, 1.7782e-07
432.6, 1.7579e-07
432.8, 1.7379e-07
433.0, 1.718e-07
433.2, 1.6984e-07
433.4, 1.6791e-07
433.6, 1.6599e-07
433.8, 1.641e-07
434.0, 1.6222e-07
434.2, 1.6037e-07
434.4, 1.5854e-07
434.6, 1.5673e-07
434.8, 1.5495e-07
435.0, 1.5318e-07
435.2, 1.5143e-07
435.4, 1.497e-07
435.6, 1.4799e-07
435.8, 1.4631e-07
436.0, 1.4464e-07
436.2, 1.4299e-07
436.4, 1.4135e-07
436.6, 1.3974e-07
436.8, 1.3815e-07
437.0, 1.3852e-07
437.2, 1.4495e-07
437.4, 1.5167e-07
437.6, 1.587e-07
437.8, 1.6606e-07
438.0, 1.7376e-07
438.2, 1.8181e-07
438.4, 1.9024e-07
438.6, 1.9906e-07
438.8, 2.0829e-07
439.0, 2.1795e-07
439.2, 2.2806e-07
439.4, 2.3863e-07
439.6, 2.497e-07
439.8, 2.6127e-07
440.0, 2.7339e-07
440.2, 2.8606e-07
440.4, 2.9933e-07
440.6, 3.132e-07
440.8, 3.2773e-07
441.0, 3.4292e-07
441.2, 3.5882e-07
441.4, 3.7546e-07
441.6, 3.9287e-07
441.8, 4.1108e-07
442.0, 4.2168e-07
442.2, 4.0754e-07
442.4, 3.9388e-07
442.6, 3.8067e-07
442.8, 3.679e-07
443.0, 3.5557e-07
443.2, 3.4364e-07
443.4, 3.3212e-07
443.6, 3.2098e-07
443.8, 3.1022e-07
444.0, 2.9981e-07
444.2, 2.8976e-07
444.4, 2.8004e-07
444.6, 2.7065e-07
444.8, 2.6158e-07
445.0, 2.528e-07
445.2, 2.4433e-07
445.4, 2.3613e-07
445.6, 2.2821e-07
445.8, 2.2056e-07
446.0, 2.1317e-07
446.2, 2.0602e-07
446.4, 1.9911e-07
446.6, 1.9243e-07
446.8, 1.8598e-07
447.0, 1.8109e-07
447.2, 1.8056e-07
447.4, 1.8002e-07
447.6, 1.7949e-07
447.8, 1.7896e-07
448.0, 1.7843e-07
448.2, 1.7791e-07
448.4, 1.7738e-07
448.6, 1.7686e-07
448.8, 1.7634e-07
449.0, 1.7582e-07
449.2, 1.753e-07
449.4, 1.7478e-07
449.6, 1.7426e-07
449.8, 1.7375e-07
450.0, 1.7324e-07
450.2, 1.7273e-07
450.4, 1.7222e-07
450.6, 1.7171e-07
450.8, 1.712e-07
451.0, 1.707e-07
451.2, 1.7019e-07
451.4, 1.6969e-07
451.6, 1.6919e-07
451.8, 1.6869e-07
452.0, 1.6857e-07
452.2, 1.6971e-07
452.4, 1.7087e-07
452.6, 1.7202e-07
452.8, 1.7319e-07
453.0, 1.7437e-07
453.2, 1.7555e-07
453.4, 1.7674e-07
453.6, 1.7794e-07
453.8, 1.7915e-07
454.0, 1.8037e-07
454.2, 1.8159e-07
454.4, 1.8282e-07
454.6, 1.8407e-07
454.8, 1.8531e-07
455.0, 1.8657e-07
455.2, 1.8784e-07
455.4, 1.8911e-07
455.6, 1.904e-07
455.8, 1.9169e-07
456.0, 1.9299e-07
456.2, 1.943e-07
456.4, 1.9562e-07
456.6, 1.9695e-07
456.8, 1.9829e-07
457.0, 2.0085e-07
457.2, 2.0761e-07
457.4, 2.146e-07
457.6, 2.2183e-07
457.8, 2.2931e-07
458.0, 2.3703e-07
458.2, 2.4501e-07
458.4, 2.5327e-07
458.6, 2.618e-07
458.8, 2.7062e-07
459.0, 2.7973e-07
459.2, 2.8916e-07
459.4, 2.989e-07
459.6, 3.0896e-07
459.8, 3.1937e-07
460.0, 3.3013e-07
460.2, 3.4125e-07
460.4, 3.5274e-07
460.6, 3.6463e-07
460.8, 3.7691e-07
461.0, 3.8961e-07
461.2, 4.0273e-07
461.4, 4.1629e-07
461.6, 4.3032e-07
461.8, 4.4481e-07
462.0, 4.5826e-07
462.2, 4.6668e-07
462.4, 4.7526e-07
462.6, 4.84e-07
462.8, 4.929e-07
463.0, 5.0197e-07
463.2, 5.112e-07
463.4, 5.206e-07
463.6, 5.3017e-07
463.8, 5.3992e-07
464.0, 5.4985e-07
464.2, 5.5996e-07
464.4, 5.7026e-07
464.6, 5.8075e-07
464.8, 5.9142e-07
465.0, 6.023e-07
465.2, 6.1338e-07
465.4, 6.2465e-07
465.6, 6.3614e-07
465.8, 6.4784e-07
466.0, 6.5975e-07
466.2, 6.7188e-07
466.4, 6.8424e-07
466.6, 6.9682e-07
466.8, 7.0964e-07
467.0, 7.2268e-07
467.2, 7.3597e-07
467.4, 7.4951e-07
467.6, 7.6329e-07
467.8, 7.7712e-07
468.0, 7.9118e-07
468.2, 8.055e-07
468.4, 8.2008e-07
468.6, 8.3492e-07
468.8, 8.5004e-07
469.0, 8.6542e-07
469.2, 8.8108e-07
469.4, 8.9703e-07
469.6, 9.1326e-07
469.8, 9.2979e-07
470.0, 9.4662e-07
470.2, 9.6376e-07
470.4, 9.812e-07
470.6, 9.9896e-07
470.8, 1.017e-06
471.0, 1.0354e-06
471.2, 1.0542e-06
471.4, 1.0733e-06
471.6, 1.0927e-06
471.8, 1.1125e-06
472.0, 1.1326e-06
472.2, 1.1531e-06
472.4, 1.168e-06
472.6, 1.1829e-06
472.8, 1.1981e-06
473.0, 1.2134e-06
473.2, 1.2289e-06
473.4, 1.2447e-06
473.6, 1.2606e-06
473.8, 1.2767e-06
474.0, 1.2931e-06
474.2, 1.3096e-06
474.4, 1.3264e-06
474.6, 1.3433e-06
474.8, 1.3605e-06
475.0, 1.3779e-06
475.2, 1.3956e-06
475.4, 1.4134e-06
475.6, 1.4315e-06
475.8, 1.4498e-06
476.0, 1.4609e-06
476.2, 1.3827e-06
476.4, 1.3087e-06
476.6, 1.2386e-06
476.8, 1.1723e-06
477.0, 1.1095e-06
477.2, 1.0501e-06
477.4, 9.939e-07
477.6, 7.262e-07
477.8, 5.7712e-07
478.0, 7.4804e-07
478.2, 6.4407e-07
478.4, 8.2996e-07
478.6, 6.5081e-07
478.8, 7.9124e-07
479.0, 6.3778e-07
479.2, 7.8045e-07
479.4, 9.45e-07
479.6, 9.8203e-07
479.8, 8.5827e-07
480.0, 9.4971e-07
480.2, 1.1726e-06
480.4, 1.0406e-06
480.6, 8.521e-07
480.8, 1.0797e-06
481.0, 1.3062e-06
481.2, 1.4356e-06
481.4, 1.5772e-06
481.6, 1.5243e-06
481.8, 1.9041e-06
482.0, 2.0586e-06
482.2, 2.1783e-06
482.4, 2.6346e-06
482.6, 3.0378e-06
482.8, 3.2396e-06
483.0, 3.8077e-06
483.2, 3.9671e-06
483.4, 4.8834e-06
483.6, 5.8591e-06
483.8, 6.9304e-06
484.0, 7.9831e-06
484.2, 9.3321e-06
484.4, 1.136e-05
484.6, 1.3945e-05
484.8, 1.6845e-05
485.0, 1.9701e-05
485.2, 2.3326e-05
485.4, 2.8198e-05
485.6, 3.3749e-05
485.8, 4.1152e-05
486.0, 5.1082e-05
486.2, 6.2562e-05
486.4, 7.623e-05
486.6, 9.1916e-05
486.8, 1.1094e-04
487.0, 1.2908e-04
487.2, 1.499e-04
487.4, 1.7357e-04
487.6, 1.9893e-04
487.8, 2.2511e-04
488.0, 2.5198e-04
488.2, 2.8105e-04
488.4, 3.1144e-04
488.6, 3.4669e-04
488.8, 3.8394e-04
489.0, 4.2689e-04
489.2, 4.7976e-04
489.4, 5.3839e-04
489.6, 6.0594e-04
489.8, 6.8759e-04
490.0, 7.8794e-04
490.2, 9.1182e-04
490.4, 0.00106
490.6, 0.00121
490.8, 0.00143
491.0, 0.00169
491.2, 0.00205
491.4, 0.00249
491.6, 0.00304
491.8, 0.00372
492.0, 0.00458
492.2, 0.00567
492.4, 0.00692
492.6, 0.00842
492.8, 0.01021
493.0, 0.01215
493.2, 0.01476
493.4, 0.01683
493.6, 0.01889
493.8, 0.02074
494.0, 0.02247
494.2, 0.02397
494.4, 0.02512
494.6, 0.02636
494.8, 0.02797
495.0, 0.02991
495.2, 0.03218
495.4, 0.03491
495.6, 0.0384
495.8, 0.04183
496.0, 0.04692
496.2, 0.05295
496.4, 0.06043
496.6, 0.06963
496.8, 0.08132
497.0, 0.09278
497.2, 0.10631
497.4, 0.12763
497.6, 0.15424
497.8, 0.18729
498.0, 0.22958
498.2, 0.28061
498.4, 0.37573
498.6, 0.45219
498.8, 0.538
499.0, 0.62533
499.2, 0.71034
499.4, 0.78452
499.6, 0.84583
499.8, 0.89327
500.0, 0.92109
500.2, 0.93986
500.4, 0.95308
500.6, 0.95994
500.8, 0.96182
501.0, 0.96097
501.2, 0.95996
501.4, 0.95896
501.6, 0.95788
501.8, 0.95697
502.0, 0.95604
502.2, 0.95639
502.4, 0.95714
502.6, 0.95729
502.8, 0.9576
503.0, 0.95878
503.2, 0.95906
503.4, 0.9597
503.6, 0.96039
503.8, 0.96101
504.0, 0.96226
504.2, 0.96299
504.4, 0.96385
504.6, 0.96402
504.8, 0.96412
505.0, 0.96481
505.2, 0.96451
505.4, 0.96452
505.6, 0.96328
505.8, 0.96195
506.0, 0.96068
506.2, 0.95944
506.4, 0.95752
506.6, 0.95638
506.8, 0.9546
507.0, 0.95336
507.2, 0.95191
507.4, 0.95091
507.6, 0.95031
507.8, 0.95005
508.0, 0.94978
508.2, 0.95022
508.4, 0.95059
508.6, 0.95254
508.8, 0.95383
509.0, 0.95527
509.2, 0.95656
509.4, 0.95781
509.6, 0.95913
509.8, 0.96013
510.0, 0.961
510.2, 0.96179
510.4, 0.96176
510.6, 0.96117
510.8, 0.96098
511.0, 0.96066
511.2, 0.95918
511.4, 0.95788
511.6, 0.95645
511.8, 0.9557
512.0, 0.95478
512.2, 0.95363
512.4, 0.95232
512.6, 0.95211
512.8, 0.95218
513.0, 0.95186
513.2, 0.95272
513.4, 0.9534
513.6, 0.95427
513.8, 0.9552
514.0, 0.95644
514.2, 0.95846
514.4, 0.96038
514.6, 0.96127
514.8, 0.96246
515.0, 0.96414
515.2, 0.96492
515.4, 0.96562
515.6, 0.96626
515.8, 0.96655
516.0, 0.96657
516.2, 0.96622
516.4, 0.96581
516.6, 0.96607
516.8, 0.96501
517.0, 0.96416
517.2, 0.96388
517.4, 0.96219
517.6, 0.96226
517.8, 0.9613
518.0, 0.9615
518.2, 0.96133
518.4, 0.96061
518.6, 0.96051
518.8, 0.96114
519.0, 0.9617
519.2, 0.9629
519.4, 0.96278
519.6, 0.96327
519.8, 0.96356
520.0, 0.96492
520.2, 0.96606
520.4, 0.9668
520.6, 0.96699
520.8, 0.9685
521.0, 0.96832
521.2, 0.96883
521.4, 0.96994
521.6, 0.96951
521.8, 0.97019
522.0, 0.96972
522.2, 0.96959
522.4, 0.96966
522.6, 0.96945
522.8, 0.96914
523.0, 0.96911
523.2, 0.96848
523.4, 0.96792
523.6, 0.9681
523.8, 0.96775
524.0, 0.96822
524.2, 0.96752
524.4, 0.96744
524.6, 0.96739
524.8, 0.96722
525.0, 0.96751
525.2, 0.9669
525.4, 0.96771
525.6, 0.96728
525.8, 0.96718
526.0, 0.9669
526.2, 0.96722
526.4, 0.96745
526.6, 0.96665
526.8, 0.96686
527.0, 0.96739
527.2, 0.96755
527.4, 0.96662
527.6, 0.96653
527.8, 0.96616
528.0, 0.966
528.2, 0.96643
528.4, 0.96644
528.6, 0.96585
528.8, 0.96583
529.0, 0.96579
529.2, 0.96551
529.4, 0.96527
529.6, 0.9646
529.8, 0.96419
530.0, 0.96373
530.2, 0.96306
530.4, 0.96235
530.6, 0.9621
530.8, 0.9613
531.0, 0.96125
531.2, 0.96
531.4, 0.9593
531.6, 0.95869
531.8, 0.95859
532.0, 0.9578
532.2, 0.95694
532.4, 0.95655
532.6, 0.95612
532.8, 0.95633
533.0, 0.95661
533.2, 0.95653
533.4, 0.95651
533.6, 0.95658
533.8, 0.95646
534.0, 0.95707
534.2, 0.95805
534.4, 0.95808
534.6, 0.95825
534.8, 0.95832
535.0, 0.95842
535.2, 0.95901
535.4, 0.95954
535.6, 0.9594
535.8, 0.95989
536.0, 0.96004
536.2, 0.95978
536.4, 0.95933
536.6, 0.9589
536.8, 0.95873
537.0, 0.95873
537.2, 0.95892
537.4, 0.95862
537.6, 0.9582
537.8, 0.95803
538.0, 0.95794
538.2, 0.9578
538.4, 0.958
538.6, 0.95793
538.8, 0.95833
539.0, 0.95867
539.2, 0.95847
539.4, 0.95901
539.6, 0.95975
539.8, 0.96027
540.0, 0.96086
540.2, 0.96074
540.4, 0.96126
540.6, 0.96139
540.8, 0.96131
541.0, 0.96211
541.2, 0.96183
541.4, 0.9625
541.6, 0.96223
541.8, 0.96188
542.0, 0.9623
542.2, 0.96213
542.4, 0.96229
542.6, 0.9624
542.8, 0.96221
543.0, 0.96084
543.2, 0.95985
543.4, 0.96006
543.6, 0.96028
543.8, 0.96082
544.0, 0.96175
544.2, 0.96185
544.4, 0.96276
544.6, 0.96337
544.8, 0.96404
545.0, 0.96479
545.2, 0.96554
545.4, 0.96644
545.6, 0.96654
545.8, 0.96676
546.0, 0.96703
546.2, 0.9666
546.4, 0.96714
546.6, 0.96667
546.8, 0.9664
547.0, 0.96547
547.2, 0.96494
547.4, 0.9643
547.6, 0.96375
547.8, 0.9629
548.0, 0.96258
548.2, 0.96228
548.4, 0.96175
548.6, 0.96144
548.8, 0.96118
549.0, 0.96178
549.2, 0.96196
549.4, 0.96202
549.6, 0.96231
549.8, 0.96275
550.0, 0.96361
550.2, 0.96418
550.4, 0.96511
550.6, 0.96534
550.8, 0.96536
551.0, 0.96574
551.2, 0.96602
551.4, 0.96623
551.6, 0.96575
551.8, 0.96559
552.0, 0.96502
552.2, 0.9646
552.4, 0.96445
552.6, 0.96378
552.8, 0.96312
553.0, 0.96304
553.2, 0.96303
553.4, 0.96308
553.6, 0.96259
553.8, 0.96316
554.0, 0.96294
554.2, 0.96251
554.4, 0.96248
554.6, 0.96271
554.8, 0.96301
555.0, 0.96282
555.2, 0.96266
555.4, 0.96252
555.6, 0.96234
555.8, 0.96302
556.0, 0.9633
556.2, 0.96333
556.4, 0.96355
556.6, 0.96366
556.8, 0.96305
557.0, 0.96174
557.2, 0.95974
557.4, 0.95661
557.6, 0.95212
557.8, 0.94587
558.0, 0.93985
558.2, 0.93281
558.4, 0.92611
558.6, 0.9208
558.8, 0.91807
559.0, 0.91892
559.2, 0.92349
559.4, 0.92981
559.6, 0.93093
559.8, 0.91293
560.0, 0.85792
560.2, 0.77371
560.4, 0.63193
560.6, 0.46909
560.8, 0.32323
561.0, 0.2122
561.2, 0.13663
561.4, 0.08703
561.6, 0.05528
561.8, 0.03616
562.0, 0.02411
562.2, 0.01635
562.4, 0.01128
562.6, 0.00788
562.8, 0.00585
563.0, 0.00419
563.2, 0.00302
563.4, 0.00221
563.6, 0.00164
563.8, 0.00123
564.0, 9.2273e-04
564.2, 6.9827e-04
564.4, 5.3102e-04
564.6, 4.1008e-04
564.8, 3.1788e-04
565.0, 2.5005e-04
565.2, 1.9552e-04
565.4, 1.5643e-04
565.6, 1.2417e-04
565.8, 9.8558e-05
566.0, 7.8947e-05
566.2, 6.3804e-05
566.4, 5.1566e-05
566.6, 4.1741e-05
566.8, 3.4109e-05
567.0, 2.8126e-05
567.2, 2.3192e-05
567.4, 1.9391e-05
567.6, 1.6213e-05
567.8, 1.3444e-05
568.0, 1.1057e-05
568.2, 9.3675e-06
568.4, 7.9358e-06
568.6, 6.7102e-06
568.8, 5.6635e-06
569.0, 4.78e-06
569.2, 4.0314e-06
569.4, 3.4662e-06
569.6, 3.0361e-06
569.8, 2.6591e-06
570.0, 2.2932e-06
570.2, 1.9775e-06
570.4, 1.7353e-06
570.6, 1.5493e-06
570.8, 1.3056e-06
571.0, 1.0987e-06
571.2, 9.6836e-07
571.4, 9.003e-07
571.6, 8.3702e-07
571.8, 7.4301e-07
572.0, 6.5566e-07
572.2, 5.7601e-07
572.4, 5.0604e-07
572.6, 4.7448e-07
572.8, 4.4578e-07
573.0, 3.9063e-07
573.2, 3.1543e-07
573.4, 2.9536e-07
573.6, 2.7741e-07
573.8, 2.4355e-07
574.0, 1.9847e-07
574.2, 1.6173e-07
574.4, 2.1449e-07
574.6, 2.243e-07
574.8, 1.7937e-07
575.0, 1.4343e-07
575.2, 1.188e-07
575.4, 9.8471e-08
575.6, 1.0962e-07
575.8, 1.6906e-07
576.0, 1.2064e-07
576.2, 8.5416e-08
576.4, 7.1492e-08
576.6, 7.1472e-08
576.8, 7.1452e-08
577.0, 7.1437e-08
577.2, 7.1377e-08
577.4, 7.127e-08
577.6, 7.1163e-08
577.8, 9.7108e-08
578.0, 1.0889e-07
578.2, 9.1235e-08
578.4, 7.3878e-08
578.6, 8.0706e-08
578.8, 8.8165e-08
579.0, 9.7308e-08
579.2, 1.0743e-07
579.4, 1.1861e-07
579.6, 1.3095e-07
579.8, 1.4458e-07
580.0, 1.5963e-07
580.2, 1.7624e-07
580.4, 1.894e-07
580.6, 1.8923e-07
580.8, 1.8905e-07
581.0, 1.8888e-07
581.2, 1.8871e-07
581.4, 1.8854e-07
581.6, 1.8837e-07
581.8, 1.882e-07
582.0, 1.8803e-07
582.2, 1.8786e-07
582.4, 1.8769e-07
582.6, 1.8752e-07
582.8, 1.8735e-07
583.0, 1.8718e-07
583.2, 1.8701e-07
583.4, 1.8684e-07
583.6, 1.8668e-07
583.8, 1.8651e-07
584.0, 1.8569e-07
584.2, 1.8464e-07
584.4, 1.8359e-07
584.6, 1.8256e-07
584.8, 1.8152e-07
585.0, 1.805e-07
585.2, 1.7948e-07
585.4, 1.7846e-07
585.6, 1.7745e-07
585.8, 1.7645e-07
586.0, 1.7545e-07
586.2, 1.7446e-07
586.4, 1.7348e-07
586.6, 1.725e-07
586.8, 1.7152e-07
587.0, 1.7055e-07
587.2, 1.6959e-07
587.4, 1.6863e-07
587.6, 1.6768e-07
587.8, 1.6673e-07
588.0, 1.6579e-07
588.2, 1.6485e-07
588.4, 1.6392e-07
588.6, 1.6299e-07
588.8, 1.6207e-07
589.0, 1.6115e-07
589.2, 1.6024e-07
589.4, 1.5933e-07
589.6, 1.5843e-07
589.8, 1.5753e-07
590.0, 1.5664e-07
590.2, 1.5576e-07
590.4, 1.5487e-07
590.6, 1.54e-07
590.8, 1.5313e-07
591.0, 1.5226e-07
591.2, 1.514e-07
591.4, 1.5054e-07
591.6, 1.4969e-07
591.8, 1.4884e-07
592.0, 1.48e-07
592.2, 1.4716e-07
592.4, 1.4633e-07
592.6, 1.455e-07
592.8, 1.4468e-07
593.0, 1.4386e-07
593.2, 1.4305e-07
593.4, 1.4224e-07
593.6, 1.4143e-07
593.8, 1.4203e-07
594.0, 1.4319e-07
594.2, 1.4436e-07
594.4, 1.4554e-07
594.6, 1.4674e-07
594.8, 1.4794e-07
595.0, 1.4915e-07
595.2, 1.5037e-07
595.4, 1.516e-07
595.6, 1.5284e-07
595.8, 1.5409e-07
596.0, 1.5535e-07
596.2, 1.5662e-07
596.4, 1.5791e-07
596.6, 1.592e-07
596.8, 1.605e-07
597.0, 1.6182e-07
597.2, 1.6314e-07
597.4, 1.6448e-07
597.6, 1.6582e-07
597.8, 1.6718e-07
598.0, 1.6855e-07
598.2, 1.6993e-07
598.4, 1.7132e-07
598.6, 1.7242e-07
598.8, 1.725e-07
599.0, 1.7257e-07
599.2, 1.7265e-07
599.4, 1.7272e-07
599.6, 1.728e-07
599.8, 1.7288e-07
600.0, 1.7295e-07
600.2, 1.7303e-07
600.4, 1.731e-07
600.6, 1.7318e-07
600.8, 1.7326e-07
601.0, 1.7333e-07
601.2, 1.7341e-07
601.4, 1.7348e-07
601.6, 1.7356e-07
601.8, 1.7364e-07
602.0, 1.7371e-07
602.2, 1.7379e-07
602.4, 1.7386e-07
602.6, 1.7394e-07
602.8, 1.7402e-07
603.0, 1.7409e-07
603.2, 1.7417e-07
603.4, 1.7425e-07
603.6, 1.7442e-07
603.8, 1.7463e-07
604.0, 1.7485e-07
604.2, 1.7506e-07
604.4, 1.7527e-07
604.6, 1.7548e-07
604.8, 1.757e-07
605.0, 1.7591e-07
605.2, 1.7613e-07
605.4, 1.7634e-07
605.6, 1.7655e-07
605.8, 1.7677e-07
606.0, 1.7698e-07
606.2, 1.772e-07
606.4, 1.7741e-07
606.6, 1.7763e-07
606.8, 1.7785e-07
607.0, 1.7806e-07
607.2, 1.7828e-07
607.4, 1.7849e-07
607.6, 1.7871e-07
607.8, 1.7893e-07
608.0, 1.7915e-07
608.2, 1.7936e-07
608.4, 1.7957e-07
608.6, 1.7973e-07
608.8, 1.7989e-07
609.0, 1.8005e-07
609.2, 1.8021e-07
609.4, 1.8037e-07
609.6, 1.8054e-07
609.8, 1.807e-07
610.0, 1.8086e-07
610.2, 1.8102e-07
610.4, 1.8118e-07
610.6, 1.8134e-07
610.8, 1.8151e-07
611.0, 1.8167e-07
611.2, 1.8183e-07
611.4, 1.8199e-07
611.6, 1.8216e-07
611.8, 1.8232e-07
612.0, 1.8248e-07
612.2, 1.8265e-07
612.4, 1.8281e-07
612.6, 1.8297e-07
612.8, 1.8314e-07
613.0, 1.833e-07
613.2, 1.8347e-07
613.4, 1.8308e-07
613.6, 1.8249e-07
613.8, 1.8191e-07
614.0, 1.8133e-07
614.2, 1.8075e-07
614.4, 1.8018e-07
614.6, 1.796e-07
614.8, 1.7903e-07
615.0, 1.7846e-07
615.2, 1.7789e-07
615.4, 1.7732e-07
615.6, 1.7676e-07
615.8, 1.7619e-07
616.0, 1.7563e-07
616.2, 1.7507e-07
616.4, 1.7451e-07
616.6, 1.7396e-07
616.8, 1.734e-07
617.0, 1.7285e-07
617.2, 1.723e-07
617.4, 1.7175e-07
617.6, 1.712e-07
617.8, 1.7065e-07
618.0, 1.7011e-07
618.2, 1.6955e-07
618.4, 1.6893e-07
618.6, 1.6832e-07
618.8, 1.6771e-07
619.0, 1.671e-07
619.2, 1.6649e-07
619.4, 1.6589e-07
619.6, 1.6528e-07
619.8, 1.6468e-07
620.0, 1.6408e-07
620.2, 1.6349e-07
620.4, 1.6289e-07
620.6, 1.623e-07
620.8, 1.6171e-07
621.0, 1.6113e-07
621.2, 1.6054e-07
621.4, 1.5996e-07
621.6, 1.5938e-07
621.8, 1.588e-07
622.0, 1.5822e-07
622.2, 1.5765e-07
622.4, 1.5707e-07
622.6, 1.565e-07
622.8, 1.5593e-07
623.0, 1.5537e-07
623.2, 1.5552e-07
623.4, 1.5593e-07
623.6, 1.5634e-07
623.8, 1.5676e-07
624.0, 1.5717e-07
624.2, 1.5759e-07
624.4, 1.58e-07
624.6, 1.5842e-07
624.8, 1.5884e-07
625.0, 1.5926e-07
625.2, 1.5968e-07
625.4, 1.601e-07
625.6, 1.6053e-07
625.8, 1.6095e-07
626.0, 1.6138e-07
626.2, 1.618e-07
626.4, 1.6223e-07
626.6, 1.6266e-07
626.8, 1.6309e-07
627.0, 1.6352e-07
627.2, 1.6396e-07
627.4, 1.6439e-07
627.6, 1.6482e-07
627.8, 1.6526e-07
628.0, 1.6302e-07
628.2, 1.6077e-07
628.4, 1.5855e-07
628.6, 1.5636e-07
628.8, 1.542e-07
629.0, 1.5208e-07
629.2, 1.4998e-07
629.4, 1.4791e-07
629.6, 1.4587e-07
629.8, 1.4385e-07
630.0, 1.4187e-07
630.2, 1.3991e-07
630.4, 1.3798e-07
630.6, 1.3607e-07
630.8, 1.342e-07
631.0, 1.3234e-07
631.2, 1.3052e-07
631.4, 1.2872e-07
631.6, 1.2694e-07
631.8, 1.2519e-07
632.0, 1.2346e-07
632.2, 1.2175e-07
632.4, 1.2007e-07
632.6, 1.1895e-07
632.8, 1.196e-07
633.0, 1.2024e-07
633.2, 1.2089e-07
633.4, 1.2155e-07
633.6, 1.222e-07
633.8, 1.2286e-07
634.0, 1.2353e-07
634.2, 1.2419e-07
634.4, 1.2486e-07
634.6, 1.2554e-07
634.8, 1.2622e-07
635.0, 1.269e-07
635.2, 1.2758e-07
635.4, 1.2827e-07
635.6, 1.2896e-07
635.8, 1.2966e-07
636.0, 1.3036e-07
636.2, 1.4311e-07
636.4, 1.614e-07
636.6, 1.8203e-07
636.8, 2.053e-07
637.0, 2.3154e-07
637.2, 2.6114e-07
637.4, 2.9452e-07
637.6, 3.3217e-07
637.8, 3.7463e-07
638.0, 4.2251e-07
638.2, 4.7652e-07
638.4, 4.7422e-07
638.6, 4.7043e-07
638.8, 4.6666e-07
639.0, 4.6292e-07
639.2, 4.5921e-07
639.4, 4.5554e-07
639.6, 4.5189e-07
639.8, 4.4827e-07
640.0, 4.4468e-07
640.2, 4.4112e-07
640.4, 4.3759e-07
640.6, 4.3408e-07
640.8, 4.3061e-07
641.0, 4.2716e-07
641.2, 4.2374e-07
641.4, 4.2034e-07
641.6, 4.1698e-07
641.8, 4.1364e-07
642.0, 4.102e-07
642.2, 4.0673e-07
642.4, 4.0328e-07
642.6, 3.9987e-07
642.8, 3.9649e-07
643.0, 3.9313e-07
643.2, 3.898e-07
643.4, 3.865e-07
643.6, 3.8323e-07
643.8, 3.7999e-07
644.0, 3.7677e-07
644.2, 3.7358e-07
644.4, 3.7042e-07
644.6, 3.6728e-07
644.8, 3.6418e-07
645.0, 3.6109e-07
645.2, 3.5804e-07
645.4, 3.5501e-07
645.6, 3.5203e-07
645.8, 3.4911e-07
646.0, 3.4622e-07
646.2, 3.4335e-07
646.4, 3.4051e-07
646.6, 3.3769e-07
646.8, 3.3489e-07
647.0, 3.3212e-07
647.2, 3.2937e-07
647.4, 3.2664e-07
647.6, 3.2394e-07
647.8, 3.2126e-07
648.0, 3.186e-07
648.2, 3.1596e-07
648.4, 3.1334e-07
648.6, 3.1075e-07
648.8, 3.0817e-07
649.0, 3.0562e-07
649.2, 3.0286e-07
649.4, 2.9808e-07
649.6, 2.9338e-07
649.8, 2.8875e-07
650.0, 2.8419e-07
650.2, 2.7971e-07
650.4, 2.7529e-07
650.6, 2.7095e-07
650.8, 2.6667e-07
651.0, 2.6247e-07
651.2, 2.5832e-07
651.4, 2.5425e-07
651.6, 2.5024e-07
651.8, 2.4629e-07
652.0, 2.424e-07
652.2, 2.3858e-07
652.4, 2.3481e-07
652.6, 2.3111e-07
652.8, 2.2746e-07
653.0, 2.2773e-07
653.2, 2.288e-07
653.4, 2.2987e-07
653.6, 2.3095e-07
653.8, 2.3204e-07
654.0, 2.3313e-07
654.2, 2.3422e-07
654.4, 2.3532e-07
654.6, 2.3643e-07
654.8, 2.3754e-07
655.0, 2.3865e-07
655.2, 2.3977e-07
655.4, 2.409e-07
655.6, 2.4203e-07
655.8, 2.4317e-07
656.0, 2.4431e-07
656.2, 2.4546e-07
656.4, 2.4661e-07
656.6, 2.4424e-07
656.8, 2.393e-07
657.0, 2.3446e-07
657.2, 2.2972e-07
657.4, 2.2507e-07
657.6, 2.2052e-07
657.8, 2.1606e-07
658.0, 2.1169e-07
658.2, 2.0741e-07
658.4, 2.0321e-07
658.6, 1.991e-07
658.8, 1.9507e-07
659.0, 1.9113e-07
659.2, 1.8726e-07
659.4, 1.8347e-07
659.6, 1.7976e-07
659.8, 1.7613e-07
660.0, 1.7256e-07
660.2, 1.6992e-07
660.4, 1.6909e-07
660.6, 1.6826e-07
660.8, 1.6744e-07
661.0, 1.6662e-07
661.2, 1.6581e-07
661.4, 1.65e-07
661.6, 1.642e-07
661.8, 1.634e-07
662.0, 1.626e-07
662.2, 1.6181e-07
662.4, 1.6102e-07
662.6, 1.6023e-07
662.8, 1.5945e-07
663.0, 1.5867e-07
663.2, 1.579e-07
663.4, 1.5713e-07
663.6, 1.5636e-07
663.8, 1.5571e-07
664.0, 1.5632e-07
664.2, 1.5693e-07
664.4, 1.5754e-07
664.6, 1.5816e-07
664.8, 1.5878e-07
665.0, 1.594e-07
665.2, 1.6002e-07
665.4, 1.6065e-07
665.6, 1.6127e-07
665.8, 1.6191e-07
666.0, 1.6254e-07
666.2, 1.6317e-07
666.4, 1.6381e-07
666.6, 1.6445e-07
666.8, 1.651e-07
667.0, 1.6574e-07
667.2, 1.6639e-07
667.4, 1.6704e-07
667.6, 1.6757e-07
667.8, 1.6808e-07
668.0, 1.6859e-07
668.2, 1.691e-07
668.4, 1.6962e-07
668.6, 1.7013e-07
668.8, 1.7065e-07
669.0, 1.7117e-07
669.2, 1.7169e-07
669.4, 1.7221e-07
669.6, 1.7274e-07
669.8, 1.7326e-07
670.0, 1.7379e-07
670.2, 1.7432e-07
670.4, 1.7485e-07
670.6, 1.7538e-07
670.8, 1.7591e-07
671.0, 1.7645e-07
671.2, 1.7495e-07
671.4, 1.723e-07
671.6, 1.6969e-07
671.8, 1.6712e-07
672.0, 1.6458e-07
672.2, 1.6209e-07
672.4, 1.5963e-07
672.6, 1.5721e-07
672.8, 1.5483e-07
673.0, 1.5248e-07
673.2, 1.4428e-07
673.4, 1.3653e-07
673.6, 1.2919e-07
673.8, 1.2225e-07
674.0, 1.1653e-07
674.2, 1.1719e-07
674.4, 1.1786e-07
674.6, 1.1853e-07
674.8, 1.1921e-07
675.0, 1.1989e-07
675.2, 1.2057e-07
675.4, 1.2126e-07
675.6, 1.2195e-07
675.8, 1.2265e-07
676.0, 1.2335e-07
676.2, 1.2405e-07
676.4, 1.2476e-07
676.6, 1.2547e-07
676.8, 1.2619e-07
677.0, 1.2691e-07
677.2, 1.2763e-07
677.4, 1.2836e-07
677.6, 1.2909e-07
677.8, 1.2806e-07
678.0, 1.2664e-07
678.2, 1.2523e-07
678.4, 1.2384e-07
678.6, 1.2246e-07
678.8, 1.211e-07
679.0, 1.1975e-07
679.2, 1.1842e-07
679.4, 1.1711e-07
679.6, 1.158e-07
679.8, 1.1452e-07
680.0, 1.1324e-07
680.2, 1.1198e-07
680.4, 1.1074e-07
680.6, 1.0951e-07
680.8, 1.0829e-07
681.0, 1.0708e-07
681.2, 1.0589e-07
681.4, 1.053e-07
681.6, 1.0527e-07
681.8, 1.0524e-07
682.0, 1.0521e-07
682.2, 1.0518e-07
682.4, 1.0515e-07
682.6, 1.0512e-07
682.8, 1.0509e-07
683.0, 1.0506e-07
683.2, 1.0503e-07
683.4, 1.05e-07
683.6, 1.0497e-07
683.8, 1.0494e-07
684.0, 1.0491e-07
684.2, 1.0488e-07
684.4, 1.0485e-07
684.6, 1.0482e-07
684.8, 1.0479e-07
685.0, 1.0498e-07
685.2, 1.059e-07
685.4, 1.0683e-07
685.6, 1.0776e-07
685.8, 1.0871e-07
686.0, 1.0966e-07
686.2, 1.1063e-07
686.4, 1.116e-07
686.6, 1.1257e-07
686.8, 1.1356e-07
687.0, 1.1456e-07
687.2, 1.1556e-07
687.4, 1.1658e-07
687.6, 1.176e-07
687.8, 1.1863e-07
688.0, 1.1967e-07
688.2, 1.2072e-07
688.4, 1.2178e-07
688.6, 1.2285e-07
688.8, 1.2332e-07
689.0, 1.2375e-07
689.2, 1.2419e-07
689.4, 1.2463e-07
689.6, 1.2507e-07
689.8, 1.2551e-07
690.0, 1.2596e-07
690.2, 1.264e-07
690.4, 1.2685e-07
690.6, 1.273e-07
690.8, 1.2775e-07
691.0, 1.282e-07
691.2, 1.2866e-07
691.4, 1.2911e-07
691.6, 1.2957e-07
691.8, 1.3003e-07
692.0, 1.3049e-07
692.2, 1.3095e-07
692.4, 1.3102e-07
692.6, 1.309e-07
692.8, 1.3078e-07
693.0, 1.3066e-07
693.2, 1.3055e-07
693.4, 1.3043e-07
693.6, 1.3031e-07
693.8, 1.3019e-07
694.0, 1.3008e-07
694.2, 1.2996e-07
694.4, 1.2984e-07
694.6, 1.2973e-07
694.8, 1.2961e-07
695.0, 1.2949e-07
695.2, 1.2938e-07
695.4, 1.2926e-07
695.6, 1.2914e-07
695.8, 1.2903e-07
696.0, 1.2893e-07
696.2, 1.2886e-07
696.4, 1.2879e-07
696.6, 1.2872e-07
696.8, 1.2865e-07
697.0, 1.2858e-07
697.2, 1.2851e-07
697.4, 1.2844e-07
697.6, 1.2837e-07
697.8, 1.283e-07
698.0, 1.2823e-07
698.2, 1.2816e-07
698.4, 1.2809e-07
698.6, 1.2803e-07
698.8, 1.2796e-07
699.0, 1.2789e-07
699.2, 1.2782e-07
699.4, 1.2775e-07
699.6, 1.2752e-07
699.8, 1.2658e-07
700.0, 1.2564e-07
700.2, 1.2471e-07
700.4, 1.2379e-07
700.6, 1.2287e-07
700.8, 1.2196e-07
701.0, 1.2106e-07
701.2, 1.2017e-07
701.4, 1.1928e-07
701.6, 1.1839e-07
701.8, 1.1752e-07
702.0, 1.1665e-07
702.2, 1.1579e-07
702.4, 1.1493e-07
702.6, 1.1408e-07
702.8, 1.1323e-07
703.0, 1.124e-07
703.2, 1.1157e-07
703.4, 1.1247e-07
703.6, 1.1348e-07
703.8, 1.145e-07
704.0, 1.1553e-07
704.2, 1.1656e-07
704.4, 1.1761e-07
704.6, 1.1867e-07
704.8, 1.1973e-07
705.0, 1.2081e-07
705.2, 1.219e-07
705.4, 1.2299e-07
705.6, 1.241e-07
705.8, 1.2521e-07
706.0, 1.2634e-07
706.2, 1.2747e-07
706.4, 1.2862e-07
706.6, 1.2977e-07
706.8, 1.3094e-07
707.0, 1.3168e-07
707.2, 1.3226e-07
707.4, 1.3284e-07
707.6, 1.3342e-07
707.8, 1.3401e-07
708.0, 1.346e-07
708.2, 1.3519e-07
708.4, 1.3578e-07
708.6, 1.3638e-07
708.8, 1.3697e-07
709.0, 1.3757e-07
709.2, 1.3818e-07
709.4, 1.3878e-07
709.6, 1.3939e-07
709.8, 1.4e-07
710.0, 1.4062e-07
710.2, 1.4124e-07
710.4, 1.4186e-07
710.6, 1.4098e-07
710.8, 1.3868e-07
711.0, 1.3641e-07
711.2, 1.3418e-07
711.4, 1.3198e-07
711.6, 1.2982e-07
711.8, 1.277e-07
712.0, 1.2561e-07
712.2, 1.2355e-07
712.4, 1.2153e-07
712.6, 1.1954e-07
712.8, 1.1759e-07
713.0, 1.1566e-07
713.2, 1.1377e-07
713.4, 1.1191e-07
713.6, 1.1008e-07
713.8, 1.0828e-07
714.0, 1.0651e-07
714.2, 1.0491e-07
714.4, 1.037e-07
714.6, 1.025e-07
714.8, 1.0131e-07
715.0, 1.0013e-07
715.2, 9.8974e-08
715.4, 9.7827e-08
715.6, 9.6693e-08
715.8, 9.5573e-08
716.0, 9.4465e-08
716.2, 9.3371e-08
716.4, 9.2289e-08
716.6, 9.1219e-08
716.8, 9.0162e-08
717.0, 8.9117e-08
717.2, 8.8085e-08
717.4, 8.7064e-08
717.6, 8.6055e-08
717.8, 8.4953e-08
718.0, 8.294e-08
718.2, 8.0974e-08
718.4, 7.9055e-08
718.6, 7.7181e-08
718.8, 7.5352e-08
719.0, 7.3566e-08
719.2, 7.1823e-08
719.4, 7.012e-08
719.6, 6.8458e-08
719.8, 6.6836e-08
720.0, 6.5252e-08
720.2, 6.3705e-08
720.4, 6.2196e-08
720.6, 6.0722e-08
720.8, 5.9282e-08
721.0, 5.7877e-08
721.2, 5.6506e-08
721.4, 5.5166e-08
721.6, 5.628e-08
721.8, 5.7651e-08
722.0, 5.9056e-08
722.2, 6.0495e-08
722.4, 6.1969e-08
722.6, 6.3478e-08
722.8, 6.5025e-08
723.0, 6.6609e-08
723.2, 6.8232e-08
723.4, 6.9894e-08
723.6, 7.1597e-08
723.8, 7.3342e-08
724.0, 7.5129e-08
724.2, 7.6959e-08
724.4, 7.8834e-08
724.6, 8.0755e-08
724.8, 8.2722e-08
725.0, 8.4737e-08
725.2, 8.6802e-08
725.4, 8.8917e-08
725.6, 9.1083e-08
725.8, 9.3302e-08
726.0, 9.5575e-08
726.2, 9.7904e-08
726.4, 9.9668e-08
726.6, 9.6942e-08
726.8, 9.4291e-08
727.0, 9.1712e-08
727.2, 8.9204e-08
727.4, 8.6764e-08
727.6, 8.4391e-08
727.8, 8.2083e-08
728.0, 7.9838e-08
728.2, 7.7655e-08
728.4, 7.5531e-08
728.6, 7.3465e-08
728.8, 7.1456e-08
729.0, 6.9502e-08
729.2, 6.7601e-08
729.4, 6.5752e-08
729.6, 6.3954e-08
729.8, 6.2205e-08
730.0, 6.4682e-08
730.2, 6.8814e-08
730.4, 7.3209e-08
730.6, 7.7885e-08
730.8, 8.286e-08
731.0, 8.8152e-08
731.2, 9.3782e-08
731.4, 9.9772e-08
731.6, 1.0614e-07
731.8, 1.1292e-07
732.0, 1.2014e-07
732.2, 1.2781e-07
732.4, 1.3597e-07
732.6, 1.4466e-07
732.8, 1.539e-07
733.0, 1.6373e-07
733.2, 1.7419e-07
733.4, 1.8531e-07
733.6, 1.9715e-07
733.8, 2.0974e-07
734.0, 2.2314e-07
734.2, 2.3739e-07
734.4, 2.5255e-07
734.6, 2.6868e-07
734.8, 2.7965e-07
735.0, 2.7155e-07
735.2, 2.6368e-07
735.4, 2.5605e-07
735.6, 2.4863e-07
735.8, 2.4143e-07
736.0, 2.3444e-07
736.2, 2.2765e-07
736.4, 2.2105e-07
736.6, 2.1465e-07
736.8, 2.0843e-07
737.0, 2.024e-07
737.2, 1.9654e-07
737.4, 1.9084e-07
737.6, 1.8532e-07
737.8, 1.7995e-07
738.0, 1.7474e-07
738.2, 1.6968e-07
738.4, 1.6476e-07
738.6, 1.5999e-07
738.8, 1.5536e-07
739.0, 1.5086e-07
739.2, 1.4649e-07
739.4, 1.4224e-07
739.6, 1.3813e-07
739.8, 1.4177e-07
740.0, 1.4838e-07
740.2, 1.553e-07
740.4, 1.6254e-07
740.6, 1.7011e-07
740.8, 1.7804e-07
741.0, 1.8634e-07
741.2, 1.9502e-07
741.4, 2.0411e-07
741.6, 2.1363e-07
741.8, 2.2359e-07
742.0, 2.3401e-07
742.2, 2.4491e-07
742.4, 2.5633e-07
742.6, 2.6828e-07
742.8, 2.8078e-07
743.0, 2.9387e-07
743.2, 3.0757e-07
743.4, 3.219e-07
743.6, 3.369e-07
743.8, 3.5261e-07
744.0, 3.6904e-07
744.2, 3.8624e-07
744.4, 4.0425e-07
744.6, 4.206e-07
744.8, 4.2908e-07
745.0, 4.3773e-07
745.2, 4.4655e-07
745.4, 4.5554e-07
745.6, 4.6472e-07
745.8, 4.7409e-07
746.0, 4.8364e-07
746.2, 4.9339e-07
746.4, 5.0333e-07
746.6, 5.1347e-07
746.8, 5.2382e-07
747.0, 5.3437e-07
747.2, 5.4514e-07
747.4, 5.5612e-07
747.6, 5.6733e-07
747.8, 5.7876e-07
748.0, 5.9042e-07
748.2, 6.0232e-07
748.4, 6.1446e-07
748.6, 6.2684e-07
748.8, 6.3947e-07
749.0, 6.5236e-07
749.2, 6.655e-07
749.4, 6.7891e-07
749.6, 6.9259e-07
749.8, 7.0655e-07
750.0, 7.2079e-07
750.2, 7.3531e-07
750.4, 7.5013e-07
750.6, 7.5322e-07
750.8, 7.3821e-07
751.0, 7.235e-07
751.2, 7.0908e-07
751.4, 6.9495e-07
751.6, 6.811e-07
751.8, 6.6752e-07
752.0, 6.5422e-07
752.2, 6.4118e-07
752.4, 6.284e-07
752.6, 6.1588e-07
752.8, 6.036e-07
753.0, 5.9157e-07
753.2, 5.7978e-07
753.4, 5.6823e-07
753.6, 5.569e-07
753.8, 5.458e-07
754.0, 5.3513e-07
754.2, 5.2842e-07
754.4, 5.2179e-07
754.6, 5.1525e-07
754.8, 5.0879e-07
755.0, 5.0241e-07
755.2, 4.9612e-07
755.4, 4.899e-07
755.6, 4.8375e-07
755.8, 4.7769e-07
756.0, 4.717e-07
756.2, 4.6579e-07
756.4, 4.5995e-07
756.6, 4.5418e-07
756.8, 4.4849e-07
757.0, 4.4287e-07
757.2, 4.3731e-07
757.4, 4.3183e-07
757.6, 4.2642e-07
757.8, 4.2107e-07
758.0, 4.1579e-07
758.2, 4.1058e-07
758.4, 4.0543e-07
758.6, 4.0035e-07
758.8, 3.9533e-07
759.0, 3.9037e-07